# Harris V band filter throughput file
# From KPNO filter throughput collection
# wavelength(nm) Throughput(0-1)
300 -5e-05
300.1 -4.5e-05
300.2 -4e-05
300.3 -3.5e-05
300.4 -3e-05
300.5 -2.5e-05
300.6 -2e-05
300.7 -1.5e-05
300.8 -1e-05
300.9 -5e-06
301 0.0
301.1 0.0
301.2 0.0
301.3 0.0
301.4 0.0
301.5 0.0
301.6 0.0
301.7 0.0
301.8 0.0
301.9 0.0
302 0.0
302.1 0.0
302.2 0.0
302.3 0.0
302.4 0.0
302.5 0.0
302.6 0.0
302.7 0.0
302.8 0.0
302.9 0.0
303 0.0
303.1 -5e-06
303.2 -1e-05
303.3 -1.5e-05
303.4 -2e-05
303.5 -2.5e-05
303.6 -3e-05
303.7 -3.5e-05
303.8 -4e-05
303.9 -4.5e-05
304 -5e-05
304.1 -5e-05
304.2 -5e-05
304.3 -5e-05
304.4 -5e-05
304.5 -5e-05
304.6 -5e-05
304.7 -5e-05
304.8 -5e-05
304.9 -5e-05
305 -5e-05
305.1 -4.5e-05
305.2 -4e-05
305.3 -3.5e-05
305.4 -3e-05
305.5 -2.5e-05
305.6 -2e-05
305.7 -1.5e-05
305.8 -1e-05
305.9 -5e-06
306 0.0
306.1 0.0
306.2 0.0
306.3 0.0
306.4 0.0
306.5 0.0
306.6 0.0
306.7 0.0
306.8 0.0
306.9 0.0
307 0.0
307.1 0.0
307.2 0.0
307.3 0.0
307.4 0.0
307.5 0.0
307.6 0.0
307.7 0.0
307.8 0.0
307.9 0.0
308 0.0
308.1 -5e-06
308.2 -1e-05
308.3 -1.5e-05
308.4 -2e-05
308.5 -2.5e-05
308.6 -3e-05
308.7 -3.5e-05
308.8 -4e-05
308.9 -4.5e-05
309 -5e-05
309.1 -5e-05
309.2 -5e-05
309.3 -5e-05
309.4 -5e-05
309.5 -5e-05
309.6 -5e-05
309.7 -5e-05
309.8 -5e-05
309.9 -5e-05
310 -5e-05
310.1 -5e-05
310.2 -5e-05
310.3 -5e-05
310.4 -5e-05
310.5 -5e-05
310.6 -5e-05
310.7 -5e-05
310.8 -5e-05
310.9 -5e-05
311 -5e-05
311.1 -5e-05
311.2 -5e-05
311.3 -5e-05
311.4 -5e-05
311.5 -5e-05
311.6 -5e-05
311.7 -5e-05
311.8 -5e-05
311.9 -5e-05
312 -5e-05
312.1 -5e-05
312.2 -5e-05
312.3 -5e-05
312.4 -5e-05
312.5 -5e-05
312.6 -5e-05
312.7 -5e-05
312.8 -5e-05
312.9 -5e-05
313 -5e-05
313.1 -5e-05
313.2 -5e-05
313.3 -5e-05
313.4 -5e-05
313.5 -5e-05
313.6 -5e-05
313.7 -5e-05
313.8 -5e-05
313.9 -5e-05
314 -5e-05
314.1 -4.5e-05
314.2 -4e-05
314.3 -3.5e-05
314.4 -3e-05
314.5 -2.5e-05
314.6 -2e-05
314.7 -1.5e-05
314.8 -1e-05
314.9 -5e-06
315 0.0
315.1 0.0
315.2 0.0
315.3 0.0
315.4 0.0
315.5 0.0
315.6 0.0
315.7 0.0
315.8 0.0
315.9 0.0
316 0.0
316.1 0.0
316.2 0.0
316.3 0.0
316.4 0.0
316.5 0.0
316.6 0.0
316.7 0.0
316.8 0.0
316.9 0.0
317 0.0
317.1 -2e-05
317.2 -4e-05
317.3 -6e-05
317.4 -8e-05
317.5 -0.0001
317.6 -0.00012
317.7 -0.00014
317.8 -0.00016
317.9 -0.00018
318 -0.0002
318.1 -0.000215
318.2 -0.00023
318.3 -0.000245
318.4 -0.00026
318.5 -0.000275
318.6 -0.00029
318.7 -0.000305
318.8 -0.00032
318.9 -0.000335
319 -0.00035
319.1 -0.00032
319.2 -0.00029
319.3 -0.00026
319.4 -0.00023
319.5 -0.0002
319.6 -0.00017
319.7 -0.00014
319.8 -0.00011
319.9 -8e-05
320 -5e-05
320.1 -5e-05
320.2 -5e-05
320.3 -5e-05
320.4 -5e-05
320.5 -5e-05
320.6 -5e-05
320.7 -5e-05
320.8 -5e-05
320.9 -5e-05
321 -5e-05
321.1 -5e-05
321.2 -5e-05
321.3 -5e-05
321.4 -5e-05
321.5 -5e-05
321.6 -5e-05
321.7 -5e-05
321.8 -5e-05
321.9 -5e-05
322 -5e-05
322.1 -5e-05
322.2 -5e-05
322.3 -5e-05
322.4 -5e-05
322.5 -5e-05
322.6 -5e-05
322.7 -5e-05
322.8 -5e-05
322.9 -5e-05
323 -5e-05
323.1 -5e-05
323.2 -5e-05
323.3 -5e-05
323.4 -5e-05
323.5 -5e-05
323.6 -5e-05
323.7 -5e-05
323.8 -5e-05
323.9 -5e-05
324 -5e-05
324.1 -5e-05
324.2 -5e-05
324.3 -5e-05
324.4 -5e-05
324.5 -5e-05
324.6 -5e-05
324.7 -5e-05
324.8 -5e-05
324.9 -5e-05
325 -5e-05
325.1 -4.5e-05
325.2 -4e-05
325.3 -3.5e-05
325.4 -3e-05
325.5 -2.5e-05
325.6 -2e-05
325.7 -1.5e-05
325.8 -1e-05
325.9 -5e-06
326 0.0
326.1 -5e-06
326.2 -1e-05
326.3 -1.5e-05
326.4 -2e-05
326.5 -2.5e-05
326.6 -3e-05
326.7 -3.5e-05
326.8 -4e-05
326.9 -4.5e-05
327 -5e-05
327.1 -4.5e-05
327.2 -4e-05
327.3 -3.5e-05
327.4 -3e-05
327.5 -2.5e-05
327.6 -2e-05
327.7 -1.5e-05
327.8 -1e-05
327.9 -5e-06
328 0.0
328.1 0.0
328.2 0.0
328.3 0.0
328.4 0.0
328.5 0.0
328.6 0.0
328.7 0.0
328.8 0.0
328.9 0.0
329 0.0
329.1 0.0
329.2 0.0
329.3 0.0
329.4 0.0
329.5 0.0
329.6 0.0
329.7 0.0
329.8 0.0
329.9 0.0
330 0.0
330.1 0.0
330.2 0.0
330.3 0.0
330.4 0.0
330.5 0.0
330.6 0.0
330.7 0.0
330.8 0.0
330.9 0.0
331 0.0
331.1 0.0
331.2 0.0
331.3 0.0
331.4 0.0
331.5 0.0
331.6 0.0
331.7 0.0
331.8 0.0
331.9 0.0
332 0.0
332.1 0.0
332.2 0.0
332.3 0.0
332.4 0.0
332.5 0.0
332.6 0.0
332.7 0.0
332.8 0.0
332.9 0.0
333 0.0
333.1 0.0
333.2 0.0
333.3 0.0
333.4 0.0
333.5 0.0
333.6 0.0
333.7 0.0
333.8 0.0
333.9 0.0
334 0.0
334.1 0.0
334.2 0.0
334.3 0.0
334.4 0.0
334.5 0.0
334.6 0.0
334.7 0.0
334.8 0.0
334.9 0.0
335 0.0
335.1 0.0
335.2 0.0
335.3 0.0
335.4 0.0
335.5 0.0
335.6 0.0
335.7 0.0
335.8 0.0
335.9 0.0
336 0.0
336.1 0.0
336.2 0.0
336.3 0.0
336.4 0.0
336.5 0.0
336.6 0.0
336.7 0.0
336.8 0.0
336.9 0.0
337 0.0
337.1 -5e-06
337.2 -1e-05
337.3 -1.5e-05
337.4 -2e-05
337.5 -2.5e-05
337.6 -3e-05
337.7 -3.5e-05
337.8 -4e-05
337.9 -4.5e-05
338 -5e-05
338.1 -5e-05
338.2 -5e-05
338.3 -5e-05
338.4 -5e-05
338.5 -5e-05
338.6 -5e-05
338.7 -5e-05
338.8 -5e-05
338.9 -5e-05
339 -5e-05
339.1 -5e-05
339.2 -5e-05
339.3 -5e-05
339.4 -5e-05
339.5 -5e-05
339.6 -5e-05
339.7 -5e-05
339.8 -5e-05
339.9 -5e-05
340 -5e-05
340.1 -4.5e-05
340.2 -4e-05
340.3 -3.5e-05
340.4 -3e-05
340.5 -2.5e-05
340.6 -2e-05
340.7 -1.5e-05
340.8 -1e-05
340.9 -5e-06
341 0.0
341.1 -5e-06
341.2 -1e-05
341.3 -1.5e-05
341.4 -2e-05
341.5 -2.5e-05
341.6 -3e-05
341.7 -3.5e-05
341.8 -4e-05
341.9 -4.5e-05
342 -5e-05
342.1 -4.5e-05
342.2 -4e-05
342.3 -3.5e-05
342.4 -3e-05
342.5 -2.5e-05
342.6 -2e-05
342.7 -1.5e-05
342.8 -1e-05
342.9 -5e-06
343 0.0
343.1 0.0
343.2 0.0
343.3 0.0
343.4 0.0
343.5 0.0
343.6 0.0
343.7 0.0
343.8 0.0
343.9 0.0
344 0.0
344.1 0.0
344.2 0.0
344.3 0.0
344.4 0.0
344.5 0.0
344.6 0.0
344.7 0.0
344.8 0.0
344.9 0.0
345 0.0
345.1 0.0
345.2 0.0
345.3 0.0
345.4 0.0
345.5 0.0
345.6 0.0
345.7 0.0
345.8 0.0
345.9 0.0
346 0.0
346.1 0.0
346.2 0.0
346.3 0.0
346.4 0.0
346.5 0.0
346.6 0.0
346.7 0.0
346.8 0.0
346.9 0.0
347 0.0
347.1 0.0
347.2 0.0
347.3 0.0
347.4 0.0
347.5 0.0
347.6 0.0
347.7 0.0
347.8 0.0
347.9 0.0
348 0.0
348.1 -5e-06
348.2 -1e-05
348.3 -1.5e-05
348.4 -2e-05
348.5 -2.5e-05
348.6 -3e-05
348.7 -3.5e-05
348.8 -4e-05
348.9 -4.5e-05
349 -5e-05
349.1 -4.5e-05
349.2 -4e-05
349.3 -3.5e-05
349.4 -3e-05
349.5 -2.5e-05
349.6 -2e-05
349.7 -1.5e-05
349.8 -1e-05
349.9 -5e-06
350 0.0
350.1 0.0
350.2 0.0
350.3 0.0
350.4 0.0
350.5 0.0
350.6 0.0
350.7 0.0
350.8 0.0
350.9 0.0
351 0.0
351.1 0.0
351.2 0.0
351.3 0.0
351.4 0.0
351.5 0.0
351.6 0.0
351.7 0.0
351.8 0.0
351.9 0.0
352 0.0
352.1 0.0
352.2 0.0
352.3 0.0
352.4 0.0
352.5 0.0
352.6 0.0
352.7 0.0
352.8 0.0
352.9 0.0
353 0.0
353.1 0.0
353.2 0.0
353.3 0.0
353.4 0.0
353.5 0.0
353.6 0.0
353.7 0.0
353.8 0.0
353.9 0.0
354 0.0
354.1 0.0
354.2 0.0
354.3 0.0
354.4 0.0
354.5 0.0
354.6 0.0
354.7 0.0
354.8 0.0
354.9 0.0
355 0.0
355.1 0.0
355.2 0.0
355.3 0.0
355.4 0.0
355.5 0.0
355.6 0.0
355.7 0.0
355.8 0.0
355.9 0.0
356 0.0
356.1 -5e-06
356.2 -1e-05
356.3 -1.5e-05
356.4 -2e-05
356.5 -2.5e-05
356.6 -3e-05
356.7 -3.5e-05
356.8 -4e-05
356.9 -4.5e-05
357 -5e-05
357.1 -4.5e-05
357.2 -4e-05
357.3 -3.5e-05
357.4 -3e-05
357.5 -2.5e-05
357.6 -2e-05
357.7 -1.5e-05
357.8 -1e-05
357.9 -5e-06
358 0.0
358.1 -5e-06
358.2 -1e-05
358.3 -1.5e-05
358.4 -2e-05
358.5 -2.5e-05
358.6 -3e-05
358.7 -3.5e-05
358.8 -4e-05
358.9 -4.5e-05
359 -5e-05
359.1 -5e-05
359.2 -5e-05
359.3 -5e-05
359.4 -5e-05
359.5 -5e-05
359.6 -5e-05
359.7 -5e-05
359.8 -5e-05
359.9 -5e-05
360 -5e-05
360.1 -4.5e-05
360.2 -4e-05
360.3 -3.5e-05
360.4 -3e-05
360.5 -2.5e-05
360.6 -2e-05
360.7 -1.5e-05
360.8 -1e-05
360.9 -5e-06
361 0.0
361.1 0.0
361.2 0.0
361.3 0.0
361.4 0.0
361.5 0.0
361.6 0.0
361.7 0.0
361.8 0.0
361.9 0.0
362 0.0
362.1 0.0
362.2 0.0
362.3 0.0
362.4 0.0
362.5 0.0
362.6 0.0
362.7 0.0
362.8 0.0
362.9 0.0
363 0.0
363.1 0.0
363.2 0.0
363.3 0.0
363.4 0.0
363.5 0.0
363.6 0.0
363.7 0.0
363.8 0.0
363.9 0.0
364 0.0
364.1 0.0
364.2 0.0
364.3 0.0
364.4 0.0
364.5 0.0
364.6 0.0
364.7 0.0
364.8 0.0
364.9 0.0
365 0.0
365.1 0.0
365.2 0.0
365.3 0.0
365.4 0.0
365.5 0.0
365.6 0.0
365.7 0.0
365.8 0.0
365.9 0.0
366 0.0
366.1 0.0
366.2 0.0
366.3 0.0
366.4 0.0
366.5 0.0
366.6 0.0
366.7 0.0
366.8 0.0
366.9 0.0
367 0.0
367.1 0.0
367.2 0.0
367.3 0.0
367.4 0.0
367.5 0.0
367.6 0.0
367.7 0.0
367.8 0.0
367.9 0.0
368 0.0
368.1 0.0
368.2 0.0
368.3 0.0
368.4 0.0
368.5 0.0
368.6 0.0
368.7 0.0
368.8 0.0
368.9 0.0
369 0.0
369.1 0.0
369.2 0.0
369.3 0.0
369.4 0.0
369.5 0.0
369.6 0.0
369.7 0.0
369.8 0.0
369.9 0.0
370 0.0
370.1 0.0
370.2 0.0
370.3 0.0
370.4 0.0
370.5 0.0
370.6 0.0
370.7 0.0
370.8 0.0
370.9 0.0
371 0.0
371.1 0.0
371.2 0.0
371.3 0.0
371.4 0.0
371.5 0.0
371.6 0.0
371.7 0.0
371.8 0.0
371.9 0.0
372 0.0
372.1 0.0
372.2 0.0
372.3 0.0
372.4 0.0
372.5 0.0
372.6 0.0
372.7 0.0
372.8 0.0
372.9 0.0
373 0.0
373.1 0.0
373.2 0.0
373.3 0.0
373.4 0.0
373.5 0.0
373.6 0.0
373.7 0.0
373.8 0.0
373.9 0.0
374 0.0
374.1 0.0
374.2 0.0
374.3 0.0
374.4 0.0
374.5 0.0
374.6 0.0
374.7 0.0
374.8 0.0
374.9 0.0
375 0.0
375.1 0.0
375.2 0.0
375.3 0.0
375.4 0.0
375.5 0.0
375.6 0.0
375.7 0.0
375.8 0.0
375.9 0.0
376 0.0
376.1 -5e-06
376.2 -1e-05
376.3 -1.5e-05
376.4 -2e-05
376.5 -2.5e-05
376.6 -3e-05
376.7 -3.5e-05
376.8 -4e-05
376.9 -4.5e-05
377 -5e-05
377.1 -5.5e-05
377.2 -6e-05
377.3 -6.5e-05
377.4 -7e-05
377.5 -7.5e-05
377.6 -8e-05
377.7 -8.5e-05
377.8 -9e-05
377.9 -9.5e-05
378 -0.0001
378.1 -9.5e-05
378.2 -9e-05
378.3 -8.5e-05
378.4 -8e-05
378.5 -7.5e-05
378.6 -7e-05
378.7 -6.5e-05
378.8 -6e-05
378.9 -5.5e-05
379 -5e-05
379.1 -4.5e-05
379.2 -4e-05
379.3 -3.5e-05
379.4 -3e-05
379.5 -2.5e-05
379.6 -2e-05
379.7 -1.5e-05
379.8 -1e-05
379.9 -5e-06
380 0.0
380.1 0.0
380.2 0.0
380.3 0.0
380.4 0.0
380.5 0.0
380.6 0.0
380.7 0.0
380.8 0.0
380.9 0.0
381 0.0
381.1 0.0
381.2 0.0
381.3 0.0
381.4 0.0
381.5 0.0
381.6 0.0
381.7 0.0
381.8 0.0
381.9 0.0
382 0.0
382.1 0.0
382.2 0.0
382.3 0.0
382.4 0.0
382.5 0.0
382.6 0.0
382.7 0.0
382.8 0.0
382.9 0.0
383 0.0
383.1 0.0
383.2 0.0
383.3 0.0
383.4 0.0
383.5 0.0
383.6 0.0
383.7 0.0
383.8 0.0
383.9 0.0
384 0.0
384.1 0.0
384.2 0.0
384.3 0.0
384.4 0.0
384.5 0.0
384.6 0.0
384.7 0.0
384.8 0.0
384.9 0.0
385 0.0
385.1 0.0
385.2 0.0
385.3 0.0
385.4 0.0
385.5 0.0
385.6 0.0
385.7 0.0
385.8 0.0
385.9 0.0
386 0.0
386.1 0.0
386.2 0.0
386.3 0.0
386.4 0.0
386.5 0.0
386.6 0.0
386.7 0.0
386.8 0.0
386.9 0.0
387 0.0
387.1 0.0
387.2 0.0
387.3 0.0
387.4 0.0
387.5 0.0
387.6 0.0
387.7 0.0
387.8 0.0
387.9 0.0
388 0.0
388.1 0.0
388.2 0.0
388.3 0.0
388.4 0.0
388.5 0.0
388.6 0.0
388.7 0.0
388.8 0.0
388.9 0.0
389 0.0
389.1 0.0
389.2 0.0
389.3 0.0
389.4 0.0
389.5 0.0
389.6 0.0
389.7 0.0
389.8 0.0
389.9 0.0
390 0.0
390.1 0.0
390.2 0.0
390.3 0.0
390.4 0.0
390.5 0.0
390.6 0.0
390.7 0.0
390.8 0.0
390.9 0.0
391 0.0
391.1 0.0
391.2 0.0
391.3 0.0
391.4 0.0
391.5 0.0
391.6 0.0
391.7 0.0
391.8 0.0
391.9 0.0
392 0.0
392.1 0.0
392.2 0.0
392.3 0.0
392.4 0.0
392.5 0.0
392.6 0.0
392.7 0.0
392.8 0.0
392.9 0.0
393 0.0
393.1 0.0
393.2 0.0
393.3 0.0
393.4 0.0
393.5 0.0
393.6 0.0
393.7 0.0
393.8 0.0
393.9 0.0
394 0.0
394.1 0.0
394.2 0.0
394.3 0.0
394.4 0.0
394.5 0.0
394.6 0.0
394.7 0.0
394.8 0.0
394.9 0.0
395 0.0
395.1 -5e-06
395.2 -1e-05
395.3 -1.5e-05
395.4 -2e-05
395.5 -2.5e-05
395.6 -3e-05
395.7 -3.5e-05
395.8 -4e-05
395.9 -4.5e-05
396 -5e-05
396.1 -4.5e-05
396.2 -4e-05
396.3 -3.5e-05
396.4 -3e-05
396.5 -2.5e-05
396.6 -2e-05
396.7 -1.5e-05
396.8 -1e-05
396.9 -5e-06
397 0.0
397.1 0.0
397.2 0.0
397.3 0.0
397.4 0.0
397.5 0.0
397.6 0.0
397.7 0.0
397.8 0.0
397.9 0.0
398 0.0
398.1 0.0
398.2 0.0
398.3 0.0
398.4 0.0
398.5 0.0
398.6 0.0
398.7 0.0
398.8 0.0
398.9 0.0
399 0.0
399.1 0.0
399.2 0.0
399.3 0.0
399.4 0.0
399.5 0.0
399.6 0.0
399.7 0.0
399.8 0.0
399.9 0.0
400 0.0
400.1 0.0
400.2 0.0
400.3 0.0
400.4 0.0
400.5 0.0
400.6 0.0
400.7 0.0
400.8 0.0
400.9 0.0
401 0.0
401.1 0.0
401.2 0.0
401.3 0.0
401.4 0.0
401.5 0.0
401.6 0.0
401.7 0.0
401.8 0.0
401.9 0.0
402 0.0
402.1 0.0
402.2 0.0
402.3 0.0
402.4 0.0
402.5 0.0
402.6 0.0
402.7 0.0
402.8 0.0
402.9 0.0
403 0.0
403.1 0.0
403.2 0.0
403.3 0.0
403.4 0.0
403.5 0.0
403.6 0.0
403.7 0.0
403.8 0.0
403.9 0.0
404 0.0
404.1 0.0
404.2 0.0
404.3 0.0
404.4 0.0
404.5 0.0
404.6 0.0
404.7 0.0
404.8 0.0
404.9 0.0
405 0.0
405.1 0.0
405.2 0.0
405.3 0.0
405.4 0.0
405.5 0.0
405.6 0.0
405.7 0.0
405.8 0.0
405.9 0.0
406 0.0
406.1 0.0
406.2 0.0
406.3 0.0
406.4 0.0
406.5 0.0
406.6 0.0
406.7 0.0
406.8 0.0
406.9 0.0
407 0.0
407.1 0.0
407.2 0.0
407.3 0.0
407.4 0.0
407.5 0.0
407.6 0.0
407.7 0.0
407.8 0.0
407.9 0.0
408 0.0
408.1 0.0
408.2 0.0
408.3 0.0
408.4 0.0
408.5 0.0
408.6 0.0
408.7 0.0
408.8 0.0
408.9 0.0
409 0.0
409.1 0.0
409.2 0.0
409.3 0.0
409.4 0.0
409.5 0.0
409.6 0.0
409.7 0.0
409.8 0.0
409.9 0.0
410 0.0
410.1 0.0
410.2 0.0
410.3 0.0
410.4 0.0
410.5 0.0
410.6 0.0
410.7 0.0
410.8 0.0
410.9 0.0
411 0.0
411.1 0.0
411.2 0.0
411.3 0.0
411.4 0.0
411.5 0.0
411.6 0.0
411.7 0.0
411.8 0.0
411.9 0.0
412 0.0
412.1 0.0
412.2 0.0
412.3 0.0
412.4 0.0
412.5 0.0
412.6 0.0
412.7 0.0
412.8 0.0
412.9 0.0
413 0.0
413.1 0.0
413.2 0.0
413.3 0.0
413.4 0.0
413.5 0.0
413.6 0.0
413.7 0.0
413.8 0.0
413.9 0.0
414 0.0
414.1 0.0
414.2 0.0
414.3 0.0
414.4 0.0
414.5 0.0
414.6 0.0
414.7 0.0
414.8 0.0
414.9 0.0
415 0.0
415.1 0.0
415.2 0.0
415.3 0.0
415.4 0.0
415.5 0.0
415.6 0.0
415.7 0.0
415.8 0.0
415.9 0.0
416 0.0
416.1 0.0
416.2 0.0
416.3 0.0
416.4 0.0
416.5 0.0
416.6 0.0
416.7 0.0
416.8 0.0
416.9 0.0
417 0.0
417.1 0.0
417.2 0.0
417.3 0.0
417.4 0.0
417.5 0.0
417.6 0.0
417.7 0.0
417.8 0.0
417.9 0.0
418 0.0
418.1 0.0
418.2 0.0
418.3 0.0
418.4 0.0
418.5 0.0
418.6 0.0
418.7 0.0
418.8 0.0
418.9 0.0
419 0.0
419.1 0.0
419.2 0.0
419.3 0.0
419.4 0.0
419.5 0.0
419.6 0.0
419.7 0.0
419.8 0.0
419.9 0.0
420 0.0
420.1 -5e-06
420.2 -1e-05
420.3 -1.5e-05
420.4 -2e-05
420.5 -2.5e-05
420.6 -3e-05
420.7 -3.5e-05
420.8 -4e-05
420.9 -4.5e-05
421 -5e-05
421.1 -4.5e-05
421.2 -4e-05
421.3 -3.5e-05
421.4 -3e-05
421.5 -2.5e-05
421.6 -2e-05
421.7 -1.5e-05
421.8 -1e-05
421.9 -5e-06
422 0.0
422.1 0.0
422.2 0.0
422.3 0.0
422.4 0.0
422.5 0.0
422.6 0.0
422.7 0.0
422.8 0.0
422.9 0.0
423 0.0
423.1 0.0
423.2 0.0
423.3 0.0
423.4 0.0
423.5 0.0
423.6 0.0
423.7 0.0
423.8 0.0
423.9 0.0
424 0.0
424.1 0.0
424.2 0.0
424.3 0.0
424.4 0.0
424.5 0.0
424.6 0.0
424.7 0.0
424.8 0.0
424.9 0.0
425 0.0
425.1 0.0
425.2 0.0
425.3 0.0
425.4 0.0
425.5 0.0
425.6 0.0
425.7 0.0
425.8 0.0
425.9 0.0
426 0.0
426.1 0.0
426.2 0.0
426.3 0.0
426.4 0.0
426.5 0.0
426.6 0.0
426.7 0.0
426.8 0.0
426.9 0.0
427 0.0
427.1 0.0
427.2 0.0
427.3 0.0
427.4 0.0
427.5 0.0
427.6 0.0
427.7 0.0
427.8 0.0
427.9 0.0
428 0.0
428.1 0.0
428.2 0.0
428.3 0.0
428.4 0.0
428.5 0.0
428.6 0.0
428.7 0.0
428.8 0.0
428.9 0.0
429 0.0
429.1 0.0
429.2 0.0
429.3 0.0
429.4 0.0
429.5 0.0
429.6 0.0
429.7 0.0
429.8 0.0
429.9 0.0
430 0.0
430.1 0.0
430.2 0.0
430.3 0.0
430.4 0.0
430.5 0.0
430.6 0.0
430.7 0.0
430.8 0.0
430.9 0.0
431 0.0
431.1 0.0
431.2 0.0
431.3 0.0
431.4 0.0
431.5 0.0
431.6 0.0
431.7 0.0
431.8 0.0
431.9 0.0
432 0.0
432.1 0.0
432.2 0.0
432.3 0.0
432.4 0.0
432.5 0.0
432.6 0.0
432.7 0.0
432.8 0.0
432.9 0.0
433 0.0
433.1 0.0
433.2 0.0
433.3 0.0
433.4 0.0
433.5 0.0
433.6 0.0
433.7 0.0
433.8 0.0
433.9 0.0
434 0.0
434.1 0.0
434.2 0.0
434.3 0.0
434.4 0.0
434.5 0.0
434.6 0.0
434.7 0.0
434.8 0.0
434.9 0.0
435 0.0
435.1 0.0
435.2 0.0
435.3 0.0
435.4 0.0
435.5 0.0
435.6 0.0
435.7 0.0
435.8 0.0
435.9 0.0
436 0.0
436.1 5e-06
436.2 1e-05
436.3 1.5e-05
436.4 2e-05
436.5 2.5e-05
436.6 3e-05
436.7 3.5e-05
436.8 4e-05
436.9 4.5e-05
437 5e-05
437.1 4.5e-05
437.2 4e-05
437.3 3.5e-05
437.4 3e-05
437.5 2.5e-05
437.6 2e-05
437.7 1.5e-05
437.8 1e-05
437.9 5e-06
438 0.0
438.1 5e-06
438.2 1e-05
438.3 1.5e-05
438.4 2e-05
438.5 2.5e-05
438.6 3e-05
438.7 3.5e-05
438.8 4e-05
438.9 4.5e-05
439 5e-05
439.1 4.5e-05
439.2 4e-05
439.3 3.5e-05
439.4 3e-05
439.5 2.5e-05
439.6 2e-05
439.7 1.5e-05
439.8 1e-05
439.9 5e-06
440 0.0
440.1 5e-06
440.2 1e-05
440.3 1.5e-05
440.4 2e-05
440.5 2.5e-05
440.6 3e-05
440.7 3.5e-05
440.8 4e-05
440.9 4.5e-05
441 5e-05
441.1 5e-05
441.2 5e-05
441.3 5e-05
441.4 5e-05
441.5 5e-05
441.6 5e-05
441.7 5e-05
441.8 5e-05
441.9 5e-05
442 5e-05
442.1 5e-05
442.2 5e-05
442.3 5e-05
442.4 5e-05
442.5 5e-05
442.6 5e-05
442.7 5e-05
442.8 5e-05
442.9 5e-05
443 5e-05
443.1 4.5e-05
443.2 4e-05
443.3 3.5e-05
443.4 3e-05
443.5 2.5e-05
443.6 2e-05
443.7 1.5e-05
443.8 1e-05
443.9 5e-06
444 0.0
444.1 5e-06
444.2 1e-05
444.3 1.5e-05
444.4 2e-05
444.5 2.5e-05
444.6 3e-05
444.7 3.5e-05
444.8 4e-05
444.9 4.5e-05
445 5e-05
445.1 5e-05
445.2 5e-05
445.3 5e-05
445.4 5e-05
445.5 5e-05
445.6 5e-05
445.7 5e-05
445.8 5e-05
445.9 5e-05
446 5e-05
446.1 5.5e-05
446.2 6e-05
446.3 6.5e-05
446.4 7e-05
446.5 7.5e-05
446.6 8e-05
446.7 8.5e-05
446.8 9e-05
446.9 9.5e-05
447 0.0001
447.1 0.0001
447.2 0.0001
447.3 0.0001
447.4 0.0001
447.5 0.0001
447.6 0.0001
447.7 0.0001
447.8 0.0001
447.9 0.0001
448 0.0001
448.1 0.0001
448.2 0.0001
448.3 0.0001
448.4 0.0001
448.5 0.0001
448.6 0.0001
448.7 0.0001
448.8 0.0001
448.9 0.0001
449 0.0001
449.1 0.000105
449.2 0.00011
449.3 0.000115
449.4 0.00012
449.5 0.000125
449.6 0.00013
449.7 0.000135
449.8 0.00014
449.9 0.000145
450 0.00015
450.1 0.00015
450.2 0.00015
450.3 0.00015
450.4 0.00015
450.5 0.00015
450.6 0.00015
450.7 0.00015
450.8 0.00015
450.9 0.00015
451 0.00015
451.1 0.000155
451.2 0.00016
451.3 0.000165
451.4 0.00017
451.5 0.000175
451.6 0.00018
451.7 0.000185
451.8 0.00019
451.9 0.000195
452 0.0002
452.1 0.0002
452.2 0.0002
452.3 0.0002
452.4 0.0002
452.5 0.0002
452.6 0.0002
452.7 0.0002
452.8 0.0002
452.9 0.0002
453 0.0002
453.1 0.000205
453.2 0.00021
453.3 0.000215
453.4 0.00022
453.5 0.000225
453.6 0.00023
453.7 0.000235
453.8 0.00024
453.9 0.000245
454 0.00025
454.1 0.000255
454.2 0.00026
454.3 0.000265
454.4 0.00027
454.5 0.000275
454.6 0.00028
454.7 0.000285
454.8 0.00029
454.9 0.000295
455 0.0003
455.1 0.000305
455.2 0.00031
455.3 0.000315
455.4 0.00032
455.5 0.000325
455.6 0.00033
455.7 0.000335
455.8 0.00034
455.9 0.000345
456 0.00035
456.1 0.000355
456.2 0.00036
456.3 0.000365
456.4 0.00037
456.5 0.000375
456.6 0.00038
456.7 0.000385
456.8 0.00039
456.9 0.000395
457 0.0004
457.1 0.000405
457.2 0.00041
457.3 0.000415
457.4 0.00042
457.5 0.000425
457.6 0.00043
457.7 0.000435
457.8 0.00044
457.9 0.000445
458 0.00045
458.1 0.00046
458.2 0.00047
458.3 0.00048
458.4 0.00049
458.5 0.0005
458.6 0.00051
458.7 0.00052
458.8 0.00053
458.9 0.00054
459 0.00055
459.1 0.00056
459.2 0.00057
459.3 0.00058
459.4 0.00059
459.5 0.0006
459.6 0.00061
459.7 0.00062
459.8 0.00063
459.9 0.00064
460 0.00065
460.1 0.00066
460.2 0.00067
460.3 0.00068
460.4 0.00069
460.5 0.0007
460.6 0.00071
460.7 0.00072
460.8 0.00073
460.9 0.00074
461 0.00075
461.1 0.00076
461.2 0.00077
461.3 0.00078
461.4 0.00079
461.5 0.0008
461.6 0.00081
461.7 0.00082
461.8 0.00083
461.9 0.00084
462 0.00085
462.1 0.000865
462.2 0.00088
462.3 0.000895
462.4 0.00091
462.5 0.000925
462.6 0.00094
462.7 0.000955
462.8 0.00097
462.9 0.000985
463 0.001
463.1 0.00101
463.2 0.00102
463.3 0.00103
463.4 0.00104
463.5 0.00105
463.6 0.00106
463.7 0.00107
463.8 0.00108
463.9 0.00109
464 0.0011
464.1 0.00112
464.2 0.00114
464.3 0.00116
464.4 0.00118
464.5 0.0012
464.6 0.00122
464.7 0.00124
464.8 0.00126
464.9 0.00128
465 0.0013
465.1 0.001315
465.2 0.00133
465.3 0.001345
465.4 0.00136
465.5 0.001375
465.6 0.00139
465.7 0.001405
465.8 0.00142
465.9 0.001435
466 0.00145
466.1 0.00147
466.2 0.00149
466.3 0.00151
466.4 0.00153
466.5 0.00155
466.6 0.00157
466.7 0.00159
466.8 0.00161
466.9 0.00163
467 0.00165
467.1 0.001665
467.2 0.00168
467.3 0.001695
467.4 0.00171
467.5 0.001725
467.6 0.00174
467.7 0.001755
467.8 0.00177
467.9 0.001785
468 0.0018
468.1 0.001825
468.2 0.00185
468.3 0.001875
468.4 0.0019
468.5 0.001925
468.6 0.00195
468.7 0.001975
468.8 0.002
468.9 0.002025
469 0.00205
469.1 0.002085
469.2 0.00212
469.3 0.002155
469.4 0.00219
469.5 0.002225
469.6 0.00226
469.7 0.002295
469.8 0.00233
469.9 0.002365
470 0.0024
470.1 0.002435
470.2 0.00247
470.3 0.002505
470.4 0.00254
470.5 0.002575
470.6 0.00261
470.7 0.002645
470.8 0.00268
470.9 0.002715
471 0.00275
471.1 0.00279
471.2 0.00283
471.3 0.00287
471.4 0.00291
471.5 0.00295
471.6 0.00299
471.7 0.00303
471.8 0.00307
471.9 0.00311
472 0.00315
472.1 0.00321
472.2 0.00327
472.3 0.00333
472.4 0.00339
472.5 0.00345
472.6 0.00351
472.7 0.00357
472.8 0.00363
472.9 0.00369
473 0.00375
473.1 0.003825
473.2 0.0039
473.3 0.003975
473.4 0.00405
473.5 0.004125
473.6 0.0042
473.7 0.004275
473.8 0.00435
473.9 0.004425
474 0.0045
474.1 0.00461
474.2 0.00472
474.3 0.00483
474.4 0.00494
474.5 0.00505
474.6 0.00516
474.7 0.00527
474.8 0.00538
474.9 0.00549
475 0.0056
475.1 0.005745
475.2 0.00589
475.3 0.006035
475.4 0.00618
475.5 0.006325
475.6 0.00647
475.7 0.006615
475.8 0.00676
475.9 0.006905
476 0.00705
476.1 0.00725
476.2 0.00745
476.3 0.00765
476.4 0.00785
476.5 0.00805
476.6 0.00825
476.7 0.00845
476.8 0.00865
476.9 0.00885
477 0.00905
477.1 0.009325
477.2 0.0096
477.3 0.009875
477.4 0.01015
477.5 0.010425
477.6 0.0107
477.7 0.010975
477.8 0.01125
477.9 0.011525
478 0.0118
478.1 0.01217
478.2 0.01254
478.3 0.01291
478.4 0.01328
478.5 0.01365
478.6 0.01402
478.7 0.01439
478.8 0.01476
478.9 0.01513
479 0.0155
479.1 0.01601
479.2 0.01652
479.3 0.01703
479.4 0.01754
479.5 0.01805
479.6 0.01856
479.7 0.01907
479.8 0.01958
479.9 0.02009
480 0.0206
480.1 0.02129
480.2 0.02198
480.3 0.02267
480.4 0.02336
480.5 0.02405
480.6 0.02474
480.7 0.02543
480.8 0.02612
480.9 0.02681
481 0.0275
481.1 0.02842
481.2 0.02934
481.3 0.03026
481.4 0.03118
481.5 0.0321
481.6 0.03302
481.7 0.03394
481.8 0.03486
481.9 0.03578
482 0.0367
482.1 0.0379
482.2 0.0391
482.3 0.0403
482.4 0.0415
482.5 0.0427
482.6 0.0439
482.7 0.0451
482.8 0.0463
482.9 0.0475
483 0.0487
483.1 0.05024
483.2 0.05178
483.3 0.05332
483.4 0.05486
483.5 0.0564
483.6 0.05794
483.7 0.05948
483.8 0.06102
483.9 0.06256
484 0.0641
484.1 0.066015
484.2 0.06793
484.3 0.069845
484.4 0.07176
484.5 0.073675
484.6 0.07559
484.7 0.077505
484.8 0.07942
484.9 0.081335
485 0.08325
485.1 0.08555
485.2 0.08785
485.3 0.09015
485.4 0.09245
485.5 0.09475
485.6 0.09705
485.7 0.09935
485.8 0.10165
485.9 0.10395
486 0.10625
486.1 0.10905
486.2 0.11185
486.3 0.11465
486.4 0.11745
486.5 0.12025
486.6 0.12305
486.7 0.12585
486.8 0.12865
486.9 0.13145
487 0.13425
487.1 0.13739
487.2 0.14053
487.3 0.14367
487.4 0.14681
487.5 0.14995
487.6 0.15309
487.7 0.15623
487.8 0.15937
487.9 0.16251
488 0.16565
488.1 0.16917
488.2 0.17269
488.3 0.17621
488.4 0.17973
488.5 0.18325
488.6 0.18677
488.7 0.19029
488.8 0.19381
488.9 0.19733
489 0.20085
489.1 0.20482
489.2 0.20879
489.3 0.21276
489.4 0.21673
489.5 0.2207
489.6 0.22467
489.7 0.22864
489.8 0.23261
489.9 0.23658
490 0.24055
490.1 0.24472
490.2 0.24889
490.3 0.25306
490.4 0.25723
490.5 0.2614
490.6 0.26557
490.7 0.26974
490.8 0.27391
490.9 0.27808
491 0.28225
491.1 0.28646
491.2 0.29067
491.3 0.29488
491.4 0.29909
491.5 0.3033
491.6 0.30751
491.7 0.31172
491.8 0.31593
491.9 0.32014
492 0.32435
492.1 0.328685
492.2 0.33302
492.3 0.337355
492.4 0.34169
492.5 0.346025
492.6 0.35036
492.7 0.354695
492.8 0.35903
492.9 0.363365
493 0.3677
493.1 0.372005
493.2 0.37631
493.3 0.380615
493.4 0.38492
493.5 0.389225
493.6 0.39353
493.7 0.397835
493.8 0.40214
493.9 0.406445
494 0.41075
494.1 0.41496
494.2 0.41917
494.3 0.42338
494.4 0.42759
494.5 0.4318
494.6 0.43601
494.7 0.44022
494.8 0.44443
494.9 0.44864
495 0.45285
495.1 0.45693
495.2 0.46101
495.3 0.46509
495.4 0.46917
495.5 0.47325
495.6 0.47733
495.7 0.48141
495.8 0.48549
495.9 0.48957
496 0.49365
496.1 0.497445
496.2 0.50124
496.3 0.505035
496.4 0.50883
496.5 0.512625
496.6 0.51642
496.7 0.520215
496.8 0.52401
496.9 0.527805
497 0.5316
497.1 0.53514
497.2 0.53868
497.3 0.54222
497.4 0.54576
497.5 0.5493
497.6 0.55284
497.7 0.55638
497.8 0.55992
497.9 0.56346
498 0.567
498.1 0.570305
498.2 0.57361
498.3 0.576915
498.4 0.58022
498.5 0.583525
498.6 0.58683
498.7 0.590135
498.8 0.59344
498.9 0.596745
499 0.60005
499.1 0.603115
499.2 0.60618
499.3 0.609245
499.4 0.61231
499.5 0.615375
499.6 0.61844
499.7 0.621505
499.8 0.62457
499.9 0.627635
500 0.6307
500.1 0.633465
500.2 0.63623
500.3 0.638995
500.4 0.64176
500.5 0.644525
500.6 0.64729
500.7 0.650055
500.8 0.65282
500.9 0.655585
501 0.65835
501.1 0.660855
501.2 0.66336
501.3 0.665865
501.4 0.66837
501.5 0.670875
501.6 0.67338
501.7 0.675885
501.8 0.67839
501.9 0.680895
502 0.6834
502.1 0.685645
502.2 0.68789
502.3 0.690135
502.4 0.69238
502.5 0.694625
502.6 0.69687
502.7 0.699115
502.8 0.70136
502.9 0.703605
503 0.70585
503.1 0.70786
503.2 0.70987
503.3 0.71188
503.4 0.71389
503.5 0.7159
503.6 0.71791
503.7 0.71992
503.8 0.72193
503.9 0.72394
504 0.72595
504.1 0.72774
504.2 0.72953
504.3 0.73132
504.4 0.73311
504.5 0.7349
504.6 0.73669
504.7 0.73848
504.8 0.74027
504.9 0.74206
505 0.74385
505.1 0.74548
505.2 0.74711
505.3 0.74874
505.4 0.75037
505.5 0.752
505.6 0.75363
505.7 0.75526
505.8 0.75689
505.9 0.75852
506 0.76015
506.1 0.761565
506.2 0.76298
506.3 0.764395
506.4 0.76581
506.5 0.767225
506.6 0.76864
506.7 0.770055
506.8 0.77147
506.9 0.772885
507 0.7743
507.1 0.775555
507.2 0.77681
507.3 0.778065
507.4 0.77932
507.5 0.780575
507.6 0.78183
507.7 0.783085
507.8 0.78434
507.9 0.785595
508 0.78685
508.1 0.787995
508.2 0.78914
508.3 0.790285
508.4 0.79143
508.5 0.792575
508.6 0.79372
508.7 0.794865
508.8 0.79601
508.9 0.797155
509 0.7983
509.1 0.799305
509.2 0.80031
509.3 0.801315
509.4 0.80232
509.5 0.803325
509.6 0.80433
509.7 0.805335
509.8 0.80634
509.9 0.807345
510 0.80835
510.1 0.809225
510.2 0.8101
510.3 0.810975
510.4 0.81185
510.5 0.812725
510.6 0.8136
510.7 0.814475
510.8 0.81535
510.9 0.816225
511 0.8171
511.1 0.817855
511.2 0.81861
511.3 0.819365
511.4 0.82012
511.5 0.820875
511.6 0.82163
511.7 0.822385
511.8 0.82314
511.9 0.823895
512 0.82465
512.1 0.825315
512.2 0.82598
512.3 0.826645
512.4 0.82731
512.5 0.827975
512.6 0.82864
512.7 0.829305
512.8 0.82997
512.9 0.830635
513 0.8313
513.1 0.83189
513.2 0.83248
513.3 0.83307
513.4 0.83366
513.5 0.83425
513.6 0.83484
513.7 0.83543
513.8 0.83602
513.9 0.83661
514 0.8372
514.1 0.837745
514.2 0.83829
514.3 0.838835
514.4 0.83938
514.5 0.839925
514.6 0.84047
514.7 0.841015
514.8 0.84156
514.9 0.842105
515 0.84265
515.1 0.843105
515.2 0.84356
515.3 0.844015
515.4 0.84447
515.5 0.844925
515.6 0.84538
515.7 0.845835
515.8 0.84629
515.9 0.846745
516 0.8472
516.1 0.847575
516.2 0.84795
516.3 0.848325
516.4 0.8487
516.5 0.849075
516.6 0.84945
516.7 0.849825
516.8 0.8502
516.9 0.850575
517 0.85095
517.1 0.85131
517.2 0.85167
517.3 0.85203
517.4 0.85239
517.5 0.85275
517.6 0.85311
517.7 0.85347
517.8 0.85383
517.9 0.85419
518 0.85455
518.1 0.85482
518.2 0.85509
518.3 0.85536
518.4 0.85563
518.5 0.8559
518.6 0.85617
518.7 0.85644
518.8 0.85671
518.9 0.85698
519 0.85725
519.1 0.857505
519.2 0.85776
519.3 0.858015
519.4 0.85827
519.5 0.858525
519.6 0.85878
519.7 0.859035
519.8 0.85929
519.9 0.859545
520 0.8598
520.1 0.859975
520.2 0.86015
520.3 0.860325
520.4 0.8605
520.5 0.860675
520.6 0.86085
520.7 0.861025
520.8 0.8612
520.9 0.861375
521 0.86155
521.1 0.86172
521.2 0.86189
521.3 0.86206
521.4 0.86223
521.5 0.8624
521.6 0.86257
521.7 0.86274
521.8 0.86291
521.9 0.86308
522 0.86325
522.1 0.863375
522.2 0.8635
522.3 0.863625
522.4 0.86375
522.5 0.863875
522.6 0.864
522.7 0.864125
522.8 0.86425
522.9 0.864375
523 0.8645
523.1 0.864585
523.2 0.86467
523.3 0.864755
523.4 0.86484
523.5 0.864925
523.6 0.86501
523.7 0.865095
523.8 0.86518
523.9 0.865265
524 0.86535
524.1 0.86538
524.2 0.86541
524.3 0.86544
524.4 0.86547
524.5 0.8655
524.6 0.86553
524.7 0.86556
524.8 0.86559
524.9 0.86562
525 0.86565
525.1 0.865675
525.2 0.8657
525.3 0.865725
525.4 0.86575
525.5 0.865775
525.6 0.8658
525.7 0.865825
525.8 0.86585
525.9 0.865875
526 0.8659
526.1 0.865905
526.2 0.86591
526.3 0.865915
526.4 0.86592
526.5 0.865925
526.6 0.86593
526.7 0.865935
526.8 0.86594
526.9 0.865945
527 0.86595
527.1 0.865935
527.2 0.86592
527.3 0.865905
527.4 0.86589
527.5 0.865875
527.6 0.86586
527.7 0.865845
527.8 0.86583
527.9 0.865815
528 0.8658
528.1 0.865735
528.2 0.86567
528.3 0.865605
528.4 0.86554
528.5 0.865475
528.6 0.86541
528.7 0.865345
528.8 0.86528
528.9 0.865215
529 0.86515
529.1 0.865125
529.2 0.8651
529.3 0.865075
529.4 0.86505
529.5 0.865025
529.6 0.865
529.7 0.864975
529.8 0.86495
529.9 0.864925
530 0.8649
530.1 0.864775
530.2 0.86465
530.3 0.864525
530.4 0.8644
530.5 0.864275
530.6 0.86415
530.7 0.864025
530.8 0.8639
530.9 0.863775
531 0.86365
531.1 0.863525
531.2 0.8634
531.3 0.863275
531.4 0.86315
531.5 0.863025
531.6 0.8629
531.7 0.862775
531.8 0.86265
531.9 0.862525
532 0.8624
532.1 0.8623
532.2 0.8622
532.3 0.8621
532.4 0.862
532.5 0.8619
532.6 0.8618
532.7 0.8617
532.8 0.8616
532.9 0.8615
533 0.8614
533.1 0.861155
533.2 0.86091
533.3 0.860665
533.4 0.86042
533.5 0.860175
533.6 0.85993
533.7 0.859685
533.8 0.85944
533.9 0.859195
534 0.85895
534.1 0.858795
534.2 0.85864
534.3 0.858485
534.4 0.85833
534.5 0.858175
534.6 0.85802
534.7 0.857865
534.8 0.85771
534.9 0.857555
535 0.8574
535.1 0.85721
535.2 0.85702
535.3 0.85683
535.4 0.85664
535.5 0.85645
535.6 0.85626
535.7 0.85607
535.8 0.85588
535.9 0.85569
536 0.8555
536.1 0.855275
536.2 0.85505
536.3 0.854825
536.4 0.8546
536.5 0.854375
536.6 0.85415
536.7 0.853925
536.8 0.8537
536.9 0.853475
537 0.85325
537.1 0.85307
537.2 0.85289
537.3 0.85271
537.4 0.85253
537.5 0.85235
537.6 0.85217
537.7 0.85199
537.8 0.85181
537.9 0.85163
538 0.85145
538.1 0.851145
538.2 0.85084
538.3 0.850535
538.4 0.85023
538.5 0.849925
538.6 0.84962
538.7 0.849315
538.8 0.84901
538.9 0.848705
539 0.8484
539.1 0.84814
539.2 0.84788
539.3 0.84762
539.4 0.84736
539.5 0.8471
539.6 0.84684
539.7 0.84658
539.8 0.84632
539.9 0.84606
540 0.8458
540.1 0.845405
540.2 0.84501
540.3 0.844615
540.4 0.84422
540.5 0.843825
540.6 0.84343
540.7 0.843035
540.8 0.84264
540.9 0.842245
541 0.84185
541.1 0.84151
541.2 0.84117
541.3 0.84083
541.4 0.84049
541.5 0.84015
541.6 0.83981
541.7 0.83947
541.8 0.83913
541.9 0.83879
542 0.83845
542.1 0.83817
542.2 0.83789
542.3 0.83761
542.4 0.83733
542.5 0.83705
542.6 0.83677
542.7 0.83649
542.8 0.83621
542.9 0.83593
543 0.83565
543.1 0.83526
543.2 0.83487
543.3 0.83448
543.4 0.83409
543.5 0.8337
543.6 0.83331
543.7 0.83292
543.8 0.83253
543.9 0.83214
544 0.83175
544.1 0.83131
544.2 0.83087
544.3 0.83043
544.4 0.82999
544.5 0.82955
544.6 0.82911
544.7 0.82867
544.8 0.82823
544.9 0.82779
545 0.82735
545.1 0.826975
545.2 0.8266
545.3 0.826225
545.4 0.82585
545.5 0.825475
545.6 0.8251
545.7 0.824725
545.8 0.82435
545.9 0.823975
546 0.8236
546.1 0.82322
546.2 0.82284
546.3 0.82246
546.4 0.82208
546.5 0.8217
546.6 0.82132
546.7 0.82094
546.8 0.82056
546.9 0.82018
547 0.8198
547.1 0.81931
547.2 0.81882
547.3 0.81833
547.4 0.81784
547.5 0.81735
547.6 0.81686
547.7 0.81637
547.8 0.81588
547.9 0.81539
548 0.8149
548.1 0.81447
548.2 0.81404
548.3 0.81361
548.4 0.81318
548.5 0.81275
548.6 0.81232
548.7 0.81189
548.8 0.81146
548.9 0.81103
549 0.8106
549.1 0.810065
549.2 0.80953
549.3 0.808995
549.4 0.80846
549.5 0.807925
549.6 0.80739
549.7 0.806855
549.8 0.80632
549.9 0.805785
550 0.80525
550.1 0.804695
550.2 0.80414
550.3 0.803585
550.4 0.80303
550.5 0.802475
550.6 0.80192
550.7 0.801365
550.8 0.80081
550.9 0.800255
551 0.7997
551.1 0.799205
551.2 0.79871
551.3 0.798215
551.4 0.79772
551.5 0.797225
551.6 0.79673
551.7 0.796235
551.8 0.79574
551.9 0.795245
552 0.79475
552.1 0.79424
552.2 0.79373
552.3 0.79322
552.4 0.79271
552.5 0.7922
552.6 0.79169
552.7 0.79118
552.8 0.79067
552.9 0.79016
553 0.78965
553.1 0.789
553.2 0.78835
553.3 0.7877
553.4 0.78705
553.5 0.7864
553.6 0.78575
553.7 0.7851
553.8 0.78445
553.9 0.7838
554 0.78315
554.1 0.782645
554.2 0.78214
554.3 0.781635
554.4 0.78113
554.5 0.780625
554.6 0.78012
554.7 0.779615
554.8 0.77911
554.9 0.778605
555 0.7781
555.1 0.77743
555.2 0.77676
555.3 0.77609
555.4 0.77542
555.5 0.77475
555.6 0.77408
555.7 0.77341
555.8 0.77274
555.9 0.77207
556 0.7714
556.1 0.7707
556.2 0.77
556.3 0.7693
556.4 0.7686
556.5 0.7679
556.6 0.7672
556.7 0.7665
556.8 0.7658
556.9 0.7651
557 0.7644
557.1 0.76383
557.2 0.76326
557.3 0.76269
557.4 0.76212
557.5 0.76155
557.6 0.76098
557.7 0.76041
557.8 0.75984
557.9 0.75927
558 0.7587
558.1 0.75793
558.2 0.75716
558.3 0.75639
558.4 0.75562
558.5 0.75485
558.6 0.75408
558.7 0.75331
558.8 0.75254
558.9 0.75177
559 0.751
559.1 0.75032
559.2 0.74964
559.3 0.74896
559.4 0.74828
559.5 0.7476
559.6 0.74692
559.7 0.74624
559.8 0.74556
559.9 0.74488
560 0.7442
560.1 0.743465
560.2 0.74273
560.3 0.741995
560.4 0.74126
560.5 0.740525
560.6 0.73979
560.7 0.739055
560.8 0.73832
560.9 0.737585
561 0.73685
561.1 0.736105
561.2 0.73536
561.3 0.734615
561.4 0.73387
561.5 0.733125
561.6 0.73238
561.7 0.731635
561.8 0.73089
561.9 0.730145
562 0.7294
562.1 0.72859
562.2 0.72778
562.3 0.72697
562.4 0.72616
562.5 0.72535
562.6 0.72454
562.7 0.72373
562.8 0.72292
562.9 0.72211
563 0.7213
563.1 0.720555
563.2 0.71981
563.3 0.719065
563.4 0.71832
563.5 0.717575
563.6 0.71683
563.7 0.716085
563.8 0.71534
563.9 0.714595
564 0.71385
564.1 0.713075
564.2 0.7123
564.3 0.711525
564.4 0.71075
564.5 0.709975
564.6 0.7092
564.7 0.708425
564.8 0.70765
564.9 0.706875
565 0.7061
565.1 0.705255
565.2 0.70441
565.3 0.703565
565.4 0.70272
565.5 0.701875
565.6 0.70103
565.7 0.700185
565.8 0.69934
565.9 0.698495
566 0.69765
566.1 0.696815
566.2 0.69598
566.3 0.695145
566.4 0.69431
566.5 0.693475
566.6 0.69264
566.7 0.691805
566.8 0.69097
566.9 0.690135
567 0.6893
567.1 0.688395
567.2 0.68749
567.3 0.686585
567.4 0.68568
567.5 0.684775
567.6 0.68387
567.7 0.682965
567.8 0.68206
567.9 0.681155
568 0.68025
568.1 0.67935
568.2 0.67845
568.3 0.67755
568.4 0.67665
568.5 0.67575
568.6 0.67485
568.7 0.67395
568.8 0.67305
568.9 0.67215
569 0.67125
569.1 0.67029
569.2 0.66933
569.3 0.66837
569.4 0.66741
569.5 0.66645
569.6 0.66549
569.7 0.66453
569.8 0.66357
569.9 0.66261
570 0.66165
570.1 0.66076
570.2 0.65987
570.3 0.65898
570.4 0.65809
570.5 0.6572
570.6 0.65631
570.7 0.65542
570.8 0.65453
570.9 0.65364
571 0.65275
571.1 0.651785
571.2 0.65082
571.3 0.649855
571.4 0.64889
571.5 0.647925
571.6 0.64696
571.7 0.645995
571.8 0.64503
571.9 0.644065
572 0.6431
572.1 0.642145
572.2 0.64119
572.3 0.640235
572.4 0.63928
572.5 0.638325
572.6 0.63737
572.7 0.636415
572.8 0.63546
572.9 0.634505
573 0.63355
573.1 0.632575
573.2 0.6316
573.3 0.630625
573.4 0.62965
573.5 0.628675
573.6 0.6277
573.7 0.626725
573.8 0.62575
573.9 0.624775
574 0.6238
574.1 0.62284
574.2 0.62188
574.3 0.62092
574.4 0.61996
574.5 0.619
574.6 0.61804
574.7 0.61708
574.8 0.61612
574.9 0.61516
575 0.6142
575.1 0.61318
575.2 0.61216
575.3 0.61114
575.4 0.61012
575.5 0.6091
575.6 0.60808
575.7 0.60706
575.8 0.60604
575.9 0.60502
576 0.604
576.1 0.60298
576.2 0.60196
576.3 0.60094
576.4 0.59992
576.5 0.5989
576.6 0.59788
576.7 0.59686
576.8 0.59584
576.9 0.59482
577 0.5938
577.1 0.592745
577.2 0.59169
577.3 0.590635
577.4 0.58958
577.5 0.588525
577.6 0.58747
577.7 0.586415
577.8 0.58536
577.9 0.584305
578 0.58325
578.1 0.582255
578.2 0.58126
578.3 0.580265
578.4 0.57927
578.5 0.578275
578.6 0.57728
578.7 0.576285
578.8 0.57529
578.9 0.574295
579 0.5733
579.1 0.572225
579.2 0.57115
579.3 0.570075
579.4 0.569
579.5 0.567925
579.6 0.56685
579.7 0.565775
579.8 0.5647
579.9 0.563625
580 0.56255
580.1 0.561465
580.2 0.56038
580.3 0.559295
580.4 0.55821
580.5 0.557125
580.6 0.55604
580.7 0.554955
580.8 0.55387
580.9 0.552785
581 0.5517
581.1 0.55061
581.2 0.54952
581.3 0.54843
581.4 0.54734
581.5 0.54625
581.6 0.54516
581.7 0.54407
581.8 0.54298
581.9 0.54189
582 0.5408
582.1 0.539735
582.2 0.53867
582.3 0.537605
582.4 0.53654
582.5 0.535475
582.6 0.53441
582.7 0.533345
582.8 0.53228
582.9 0.531215
583 0.53015
583.1 0.52905
583.2 0.52795
583.3 0.52685
583.4 0.52575
583.5 0.52465
583.6 0.52355
583.7 0.52245
583.8 0.52135
583.9 0.52025
584 0.51915
584.1 0.518015
584.2 0.51688
584.3 0.515745
584.4 0.51461
584.5 0.513475
584.6 0.51234
584.7 0.511205
584.8 0.51007
584.9 0.508935
585 0.5078
585.1 0.50667
585.2 0.50554
585.3 0.50441
585.4 0.50328
585.5 0.50215
585.6 0.50102
585.7 0.49989
585.8 0.49876
585.9 0.49763
586 0.4965
586.1 0.495405
586.2 0.49431
586.3 0.493215
586.4 0.49212
586.5 0.491025
586.6 0.48993
586.7 0.488835
586.8 0.48774
586.9 0.486645
587 0.48555
587.1 0.484395
587.2 0.48324
587.3 0.482085
587.4 0.48093
587.5 0.479775
587.6 0.47862
587.7 0.477465
587.8 0.47631
587.9 0.475155
588 0.474
588.1 0.472905
588.2 0.47181
588.3 0.470715
588.4 0.46962
588.5 0.468525
588.6 0.46743
588.7 0.466335
588.8 0.46524
588.9 0.464145
589 0.46305
589.1 0.461935
589.2 0.46082
589.3 0.459705
589.4 0.45859
589.5 0.457475
589.6 0.45636
589.7 0.455245
589.8 0.45413
589.9 0.453015
590 0.4519
590.1 0.45073
590.2 0.44956
590.3 0.44839
590.4 0.44722
590.5 0.44605
590.6 0.44488
590.7 0.44371
590.8 0.44254
590.9 0.44137
591 0.4402
591.1 0.439065
591.2 0.43793
591.3 0.436795
591.4 0.43566
591.5 0.434525
591.6 0.43339
591.7 0.432255
591.8 0.43112
591.9 0.429985
592 0.42885
592.1 0.42769
592.2 0.42653
592.3 0.42537
592.4 0.42421
592.5 0.42305
592.6 0.42189
592.7 0.42073
592.8 0.41957
592.9 0.41841
593 0.41725
593.1 0.416145
593.2 0.41504
593.3 0.413935
593.4 0.41283
593.5 0.411725
593.6 0.41062
593.7 0.409515
593.8 0.40841
593.9 0.407305
594 0.4062
594.1 0.405035
594.2 0.40387
594.3 0.402705
594.4 0.40154
594.5 0.400375
594.6 0.39921
594.7 0.398045
594.8 0.39688
594.9 0.395715
595 0.39455
595.1 0.39347
595.2 0.39239
595.3 0.39131
595.4 0.39023
595.5 0.38915
595.6 0.38807
595.7 0.38699
595.8 0.38591
595.9 0.38483
596 0.38375
596.1 0.382655
596.2 0.38156
596.3 0.380465
596.4 0.37937
596.5 0.378275
596.6 0.37718
596.7 0.376085
596.8 0.37499
596.9 0.373895
597 0.3728
597.1 0.371665
597.2 0.37053
597.3 0.369395
597.4 0.36826
597.5 0.367125
597.6 0.36599
597.7 0.364855
597.8 0.36372
597.9 0.362585
598 0.36145
598.1 0.36033
598.2 0.35921
598.3 0.35809
598.4 0.35697
598.5 0.35585
598.6 0.35473
598.7 0.35361
598.8 0.35249
598.9 0.35137
599 0.35025
599.1 0.34918
599.2 0.34811
599.3 0.34704
599.4 0.34597
599.5 0.3449
599.6 0.34383
599.7 0.34276
599.8 0.34169
599.9 0.34062
600 0.33955
600.1 0.33842
600.2 0.33729
600.3 0.33616
600.4 0.33503
600.5 0.3339
600.6 0.33277
600.7 0.33164
600.8 0.33051
600.9 0.32938
601 0.32825
601.1 0.327235
601.2 0.32622
601.3 0.325205
601.4 0.32419
601.5 0.323175
601.6 0.32216
601.7 0.321145
601.8 0.32013
601.9 0.319115
602 0.3181
602.1 0.317005
602.2 0.31591
602.3 0.314815
602.4 0.31372
602.5 0.312625
602.6 0.31153
602.7 0.310435
602.8 0.30934
602.9 0.308245
603 0.30715
603.1 0.306115
603.2 0.30508
603.3 0.304045
603.4 0.30301
603.5 0.301975
603.6 0.30094
603.7 0.299905
603.8 0.29887
603.9 0.297835
604 0.2968
604.1 0.295765
604.2 0.29473
604.3 0.293695
604.4 0.29266
604.5 0.291625
604.6 0.29059
604.7 0.289555
604.8 0.28852
604.9 0.287485
605 0.28645
605.1 0.285445
605.2 0.28444
605.3 0.283435
605.4 0.28243
605.5 0.281425
605.6 0.28042
605.7 0.279415
605.8 0.27841
605.9 0.277405
606 0.2764
606.1 0.27537
606.2 0.27434
606.3 0.27331
606.4 0.27228
606.5 0.27125
606.6 0.27022
606.7 0.26919
606.8 0.26816
606.9 0.26713
607 0.2661
607.1 0.265075
607.2 0.26405
607.3 0.263025
607.4 0.262
607.5 0.260975
607.6 0.25995
607.7 0.258925
607.8 0.2579
607.9 0.256875
608 0.25585
608.1 0.2549
608.2 0.25395
608.3 0.253
608.4 0.25205
608.5 0.2511
608.6 0.25015
608.7 0.2492
608.8 0.24825
608.9 0.2473
609 0.24635
609.1 0.245395
609.2 0.24444
609.3 0.243485
609.4 0.24253
609.5 0.241575
609.6 0.24062
609.7 0.239665
609.8 0.23871
609.9 0.237755
610 0.2368
610.1 0.23586
610.2 0.23492
610.3 0.23398
610.4 0.23304
610.5 0.2321
610.6 0.23116
610.7 0.23022
610.8 0.22928
610.9 0.22834
611 0.2274
611.1 0.2265
611.2 0.2256
611.3 0.2247
611.4 0.2238
611.5 0.2229
611.6 0.222
611.7 0.2211
611.8 0.2202
611.9 0.2193
612 0.2184
612.1 0.217495
612.2 0.21659
612.3 0.215685
612.4 0.21478
612.5 0.213875
612.6 0.21297
612.7 0.212065
612.8 0.21116
612.9 0.210255
613 0.20935
613.1 0.208445
613.2 0.20754
613.3 0.206635
613.4 0.20573
613.5 0.204825
613.6 0.20392
613.7 0.203015
613.8 0.20211
613.9 0.201205
614 0.2003
614.1 0.199465
614.2 0.19863
614.3 0.197795
614.4 0.19696
614.5 0.196125
614.6 0.19529
614.7 0.194455
614.8 0.19362
614.9 0.192785
615 0.19195
615.1 0.1911
615.2 0.19025
615.3 0.1894
615.4 0.18855
615.5 0.1877
615.6 0.18685
615.7 0.186
615.8 0.18515
615.9 0.1843
616 0.18345
616.1 0.18262
616.2 0.18179
616.3 0.18096
616.4 0.18013
616.5 0.1793
616.6 0.17847
616.7 0.17764
616.8 0.17681
616.9 0.17598
617 0.17515
617.1 0.174375
617.2 0.1736
617.3 0.172825
617.4 0.17205
617.5 0.171275
617.6 0.1705
617.7 0.169725
617.8 0.16895
617.9 0.168175
618 0.1674
618.1 0.16662
618.2 0.16584
618.3 0.16506
618.4 0.16428
618.5 0.1635
618.6 0.16272
618.7 0.16194
618.8 0.16116
618.9 0.16038
619 0.1596
619.1 0.15883
619.2 0.15806
619.3 0.15729
619.4 0.15652
619.5 0.15575
619.6 0.15498
619.7 0.15421
619.8 0.15344
619.9 0.15267
620 0.1519
620.1 0.15116
620.2 0.15042
620.3 0.14968
620.4 0.14894
620.5 0.1482
620.6 0.14746
620.7 0.14672
620.8 0.14598
620.9 0.14524
621 0.1445
621.1 0.14379
621.2 0.14308
621.3 0.14237
621.4 0.14166
621.5 0.14095
621.6 0.14024
621.7 0.13953
621.8 0.13882
621.9 0.13811
622 0.1374
622.1 0.13672
622.2 0.13604
622.3 0.13536
622.4 0.13468
622.5 0.134
622.6 0.13332
622.7 0.13264
622.8 0.13196
622.9 0.13128
623 0.1306
623.1 0.129935
623.2 0.12927
623.3 0.128605
623.4 0.12794
623.5 0.127275
623.6 0.12661
623.7 0.125945
623.8 0.12528
623.9 0.124615
624 0.12395
624.1 0.123315
624.2 0.12268
624.3 0.122045
624.4 0.12141
624.5 0.120775
624.6 0.12014
624.7 0.119505
624.8 0.11887
624.9 0.118235
625 0.1176
625.1 0.11699
625.2 0.11638
625.3 0.11577
625.4 0.11516
625.5 0.11455
625.6 0.11394
625.7 0.11333
625.8 0.11272
625.9 0.11211
626 0.1115
626.1 0.110915
626.2 0.11033
626.3 0.109745
626.4 0.10916
626.5 0.108575
626.6 0.10799
626.7 0.107405
626.8 0.10682
626.9 0.106235
627 0.10565
627.1 0.10507
627.2 0.10449
627.3 0.10391
627.4 0.10333
627.5 0.10275
627.6 0.10217
627.7 0.10159
627.8 0.10101
627.9 0.10043
628 0.09985
628.1 0.099285
628.2 0.09872
628.3 0.098155
628.4 0.09759
628.5 0.097025
628.6 0.09646
628.7 0.095895
628.8 0.09533
628.9 0.094765
629 0.0942
629.1 0.09368
629.2 0.09316
629.3 0.09264
629.4 0.09212
629.5 0.0916
629.6 0.09108
629.7 0.09056
629.8 0.09004
629.9 0.08952
630 0.089
630.1 0.08849
630.2 0.08798
630.3 0.08747
630.4 0.08696
630.5 0.08645
630.6 0.08594
630.7 0.08543
630.8 0.08492
630.9 0.08441
631 0.0839
631.1 0.083405
631.2 0.08291
631.3 0.082415
631.4 0.08192
631.5 0.081425
631.6 0.08093
631.7 0.080435
631.8 0.07994
631.9 0.079445
632 0.07895
632.1 0.078495
632.2 0.07804
632.3 0.077585
632.4 0.07713
632.5 0.076675
632.6 0.07622
632.7 0.075765
632.8 0.07531
632.9 0.074855
633 0.0744
633.1 0.07395
633.2 0.0735
633.3 0.07305
633.4 0.0726
633.5 0.07215
633.6 0.0717
633.7 0.07125
633.8 0.0708
633.9 0.07035
634 0.0699
634.1 0.06948
634.2 0.06906
634.3 0.06864
634.4 0.06822
634.5 0.0678
634.6 0.06738
634.7 0.06696
634.8 0.06654
634.9 0.06612
635 0.0657
635.1 0.06528
635.2 0.06486
635.3 0.06444
635.4 0.06402
635.5 0.0636
635.6 0.06318
635.7 0.06276
635.8 0.06234
635.9 0.06192
636 0.0615
636.1 0.061125
636.2 0.06075
636.3 0.060375
636.4 0.06
636.5 0.059625
636.6 0.05925
636.7 0.058875
636.8 0.0585
636.9 0.058125
637 0.05775
637.1 0.057375
637.2 0.057
637.3 0.056625
637.4 0.05625
637.5 0.055875
637.6 0.0555
637.7 0.055125
637.8 0.05475
637.9 0.054375
638 0.054
638.1 0.053655
638.2 0.05331
638.3 0.052965
638.4 0.05262
638.5 0.052275
638.6 0.05193
638.7 0.051585
638.8 0.05124
638.9 0.050895
639 0.05055
639.1 0.05021
639.2 0.04987
639.3 0.04953
639.4 0.04919
639.5 0.04885
639.6 0.04851
639.7 0.04817
639.8 0.04783
639.9 0.04749
640 0.04715
640.1 0.04684
640.2 0.04653
640.3 0.04622
640.4 0.04591
640.5 0.0456
640.6 0.04529
640.7 0.04498
640.8 0.04467
640.9 0.04436
641 0.04405
641.1 0.04375
641.2 0.04345
641.3 0.04315
641.4 0.04285
641.5 0.04255
641.6 0.04225
641.7 0.04195
641.8 0.04165
641.9 0.04135
642 0.04105
642.1 0.040765
642.2 0.04048
642.3 0.040195
642.4 0.03991
642.5 0.039625
642.6 0.03934
642.7 0.039055
642.8 0.03877
642.9 0.038485
643 0.0382
643.1 0.03793
643.2 0.03766
643.3 0.03739
643.4 0.03712
643.5 0.03685
643.6 0.03658
643.7 0.03631
643.8 0.03604
643.9 0.03577
644 0.0355
644.1 0.03525
644.2 0.035
644.3 0.03475
644.4 0.0345
644.5 0.03425
644.6 0.034
644.7 0.03375
644.8 0.0335
644.9 0.03325
645 0.033
645.1 0.03277
645.2 0.03254
645.3 0.03231
645.4 0.03208
645.5 0.03185
645.6 0.03162
645.7 0.03139
645.8 0.03116
645.9 0.03093
646 0.0307
646.1 0.03048
646.2 0.03026
646.3 0.03004
646.4 0.02982
646.5 0.0296
646.6 0.02938
646.7 0.02916
646.8 0.02894
646.9 0.02872
647 0.0285
647.1 0.02828
647.2 0.02806
647.3 0.02784
647.4 0.02762
647.5 0.0274
647.6 0.02718
647.7 0.02696
647.8 0.02674
647.9 0.02652
648 0.0263
648.1 0.026105
648.2 0.02591
648.3 0.025715
648.4 0.02552
648.5 0.025325
648.6 0.02513
648.7 0.024935
648.8 0.02474
648.9 0.024545
649 0.02435
649.1 0.024165
649.2 0.02398
649.3 0.023795
649.4 0.02361
649.5 0.023425
649.6 0.02324
649.7 0.023055
649.8 0.02287
649.9 0.022685
650 0.0225
650.1 0.02232
650.2 0.02214
650.3 0.02196
650.4 0.02178
650.5 0.0216
650.6 0.02142
650.7 0.02124
650.8 0.02106
650.9 0.02088
651 0.0207
651.1 0.020545
651.2 0.02039
651.3 0.020235
651.4 0.02008
651.5 0.019925
651.6 0.01977
651.7 0.019615
651.8 0.01946
651.9 0.019305
652 0.01915
652.1 0.019
652.2 0.01885
652.3 0.0187
652.4 0.01855
652.5 0.0184
652.6 0.01825
652.7 0.0181
652.8 0.01795
652.9 0.0178
653 0.01765
653.1 0.01751
653.2 0.01737
653.3 0.01723
653.4 0.01709
653.5 0.01695
653.6 0.01681
653.7 0.01667
653.8 0.01653
653.9 0.01639
654 0.01625
654.1 0.01612
654.2 0.01599
654.3 0.01586
654.4 0.01573
654.5 0.0156
654.6 0.01547
654.7 0.01534
654.8 0.01521
654.9 0.01508
655 0.01495
655.1 0.014825
655.2 0.0147
655.3 0.014575
655.4 0.01445
655.5 0.014325
655.6 0.0142
655.7 0.014075
655.8 0.01395
655.9 0.013825
656 0.0137
656.1 0.013585
656.2 0.01347
656.3 0.013355
656.4 0.01324
656.5 0.013125
656.6 0.01301
656.7 0.012895
656.8 0.01278
656.9 0.012665
657 0.01255
657.1 0.01245
657.2 0.01235
657.3 0.01225
657.4 0.01215
657.5 0.01205
657.6 0.01195
657.7 0.01185
657.8 0.01175
657.9 0.01165
658 0.01155
658.1 0.011455
658.2 0.01136
658.3 0.011265
658.4 0.01117
658.5 0.011075
658.6 0.01098
658.7 0.010885
658.8 0.01079
658.9 0.010695
659 0.0106
659.1 0.010505
659.2 0.01041
659.3 0.010315
659.4 0.01022
659.5 0.010125
659.6 0.01003
659.7 0.009935
659.8 0.00984
659.9 0.009745
660 0.00965
660.1 0.00956
660.2 0.00947
660.3 0.00938
660.4 0.00929
660.5 0.0092
660.6 0.00911
660.7 0.00902
660.8 0.00893
660.9 0.00884
661 0.00875
661.1 0.008675
661.2 0.0086
661.3 0.008525
661.4 0.00845
661.5 0.008375
661.6 0.0083
661.7 0.008225
661.8 0.00815
661.9 0.008075
662 0.008
662.1 0.00793
662.2 0.00786
662.3 0.00779
662.4 0.00772
662.5 0.00765
662.6 0.00758
662.7 0.00751
662.8 0.00744
662.9 0.00737
663 0.0073
663.1 0.007235
663.2 0.00717
663.3 0.007105
663.4 0.00704
663.5 0.006975
663.6 0.00691
663.7 0.006845
663.8 0.00678
663.9 0.006715
664 0.00665
664.1 0.006595
664.2 0.00654
664.3 0.006485
664.4 0.00643
664.5 0.006375
664.6 0.00632
664.7 0.006265
664.8 0.00621
664.9 0.006155
665 0.0061
665.1 0.00604
665.2 0.00598
665.3 0.00592
665.4 0.00586
665.5 0.0058
665.6 0.00574
665.7 0.00568
665.8 0.00562
665.9 0.00556
666 0.0055
666.1 0.00545
666.2 0.0054
666.3 0.00535
666.4 0.0053
666.5 0.00525
666.6 0.0052
666.7 0.00515
666.8 0.0051
666.9 0.00505
667 0.005
667.1 0.004955
667.2 0.00491
667.3 0.004865
667.4 0.00482
667.5 0.004775
667.6 0.00473
667.7 0.004685
667.8 0.00464
667.9 0.004595
668 0.00455
668.1 0.004505
668.2 0.00446
668.3 0.004415
668.4 0.00437
668.5 0.004325
668.6 0.00428
668.7 0.004235
668.8 0.00419
668.9 0.004145
669 0.0041
669.1 0.004065
669.2 0.00403
669.3 0.003995
669.4 0.00396
669.5 0.003925
669.6 0.00389
669.7 0.003855
669.8 0.00382
669.9 0.003785
670 0.00375
670.1 0.00371
670.2 0.00367
670.3 0.00363
670.4 0.00359
670.5 0.00355
670.6 0.00351
670.7 0.00347
670.8 0.00343
670.9 0.00339
671 0.00335
671.1 0.003315
671.2 0.00328
671.3 0.003245
671.4 0.00321
671.5 0.003175
671.6 0.00314
671.7 0.003105
671.8 0.00307
671.9 0.003035
672 0.003
672.1 0.00297
672.2 0.00294
672.3 0.00291
672.4 0.00288
672.5 0.00285
672.6 0.00282
672.7 0.00279
672.8 0.00276
672.9 0.00273
673 0.0027
673.1 0.002675
673.2 0.00265
673.3 0.002625
673.4 0.0026
673.5 0.002575
673.6 0.00255
673.7 0.002525
673.8 0.0025
673.9 0.002475
674 0.00245
674.1 0.002425
674.2 0.0024
674.3 0.002375
674.4 0.00235
674.5 0.002325
674.6 0.0023
674.7 0.002275
674.8 0.00225
674.9 0.002225
675 0.0022
675.1 0.002175
675.2 0.00215
675.3 0.002125
675.4 0.0021
675.5 0.002075
675.6 0.00205
675.7 0.002025
675.8 0.002
675.9 0.001975
676 0.00195
676.1 0.00193
676.2 0.00191
676.3 0.00189
676.4 0.00187
676.5 0.00185
676.6 0.00183
676.7 0.00181
676.8 0.00179
676.9 0.00177
677 0.00175
677.1 0.001735
677.2 0.00172
677.3 0.001705
677.4 0.00169
677.5 0.001675
677.6 0.00166
677.7 0.001645
677.8 0.00163
677.9 0.001615
678 0.0016
678.1 0.00158
678.2 0.00156
678.3 0.00154
678.4 0.00152
678.5 0.0015
678.6 0.00148
678.7 0.00146
678.8 0.00144
678.9 0.00142
679 0.0014
679.1 0.001385
679.2 0.00137
679.3 0.001355
679.4 0.00134
679.5 0.001325
679.6 0.00131
679.7 0.001295
679.8 0.00128
679.9 0.001265
680 0.00125
680.1 0.001235
680.2 0.00122
680.3 0.001205
680.4 0.00119
680.5 0.001175
680.6 0.00116
680.7 0.001145
680.8 0.00113
680.9 0.001115
681 0.0011
681.1 0.00109
681.2 0.00108
681.3 0.00107
681.4 0.00106
681.5 0.00105
681.6 0.00104
681.7 0.00103
681.8 0.00102
681.9 0.00101
682 0.001
682.1 0.00099
682.2 0.00098
682.3 0.00097
682.4 0.00096
682.5 0.00095
682.6 0.00094
682.7 0.00093
682.8 0.00092
682.9 0.00091
683 0.0009
683.1 0.00089
683.2 0.00088
683.3 0.00087
683.4 0.00086
683.5 0.00085
683.6 0.00084
683.7 0.00083
683.8 0.00082
683.9 0.00081
684 0.0008
684.1 0.00079
684.2 0.00078
684.3 0.00077
684.4 0.00076
684.5 0.00075
684.6 0.00074
684.7 0.00073
684.8 0.00072
684.9 0.00071
685 0.0007
685.1 0.000695
685.2 0.00069
685.3 0.000685
685.4 0.00068
685.5 0.000675
685.6 0.00067
685.7 0.000665
685.8 0.00066
685.9 0.000655
686 0.00065
686.1 0.000645
686.2 0.00064
686.3 0.000635
686.4 0.00063
686.5 0.000625
686.6 0.00062
686.7 0.000615
686.8 0.00061
686.9 0.000605
687 0.0006
687.1 0.00059
687.2 0.00058
687.3 0.00057
687.4 0.00056
687.5 0.00055
687.6 0.00054
687.7 0.00053
687.8 0.00052
687.9 0.00051
688 0.0005
688.1 0.000485
688.2 0.00047
688.3 0.000455
688.4 0.00044
688.5 0.000425
688.6 0.00041
688.7 0.000395
688.8 0.00038
688.9 0.000365
689 0.00035
689.1 0.00029
689.2 0.00023
689.3 0.00017
689.4 0.00011
689.5 5e-05
689.6 -1e-05
689.7 -7e-05
689.8 -0.00013
689.9 -0.00019
690 -0.00025
690.1 -0.00019
690.2 -0.00013
690.3 -7e-05
690.4 -1e-05
690.5 5e-05
690.6 0.00011
690.7 0.00017
690.8 0.00023
690.9 0.00029
691 0.00035
691.1 0.000345
691.2 0.00034
691.3 0.000335
691.4 0.00033
691.5 0.000325
691.6 0.00032
691.7 0.000315
691.8 0.00031
691.9 0.000305
692 0.0003
692.1 0.000295
692.2 0.00029
692.3 0.000285
692.4 0.00028
692.5 0.000275
692.6 0.00027
692.7 0.000265
692.8 0.00026
692.9 0.000255
693 0.00025
693.1 0.00025
693.2 0.00025
693.3 0.00025
693.4 0.00025
693.5 0.00025
693.6 0.00025
693.7 0.00025
693.8 0.00025
693.9 0.00025
694 0.00025
694.1 0.000245
694.2 0.00024
694.3 0.000235
694.4 0.00023
694.5 0.000225
694.6 0.00022
694.7 0.000215
694.8 0.00021
694.9 0.000205
695 0.0002
695.1 0.000195
695.2 0.00019
695.3 0.000185
695.4 0.00018
695.5 0.000175
695.6 0.00017
695.7 0.000165
695.8 0.00016
695.9 0.000155
696 0.00015
696.1 0.00015
696.2 0.00015
696.3 0.00015
696.4 0.00015
696.5 0.00015
696.6 0.00015
696.7 0.00015
696.8 0.00015
696.9 0.00015
697 0.00015
697.1 0.000145
697.2 0.00014
697.3 0.000135
697.4 0.00013
697.5 0.000125
697.6 0.00012
697.7 0.000115
697.8 0.00011
697.9 0.000105
698 0.0001
698.1 0.0001
698.2 0.0001
698.3 0.0001
698.4 0.0001
698.5 0.0001
698.6 0.0001
698.7 0.0001
698.8 0.0001
698.9 0.0001
699 0.0001
699.1 0.0001
699.2 0.0001
699.3 0.0001
699.4 0.0001
699.5 0.0001
699.6 0.0001
699.7 0.0001
699.8 0.0001
699.9 0.0001
700 0.0001
700.1 0.0001
700.2 0.0001
700.3 0.0001
700.4 0.0001
700.5 0.0001
700.6 0.0001
700.7 0.0001
700.8 0.0001
700.9 0.0001
701 0.0001
701.1 0.0001
701.2 0.0001
701.3 0.0001
701.4 0.0001
701.5 0.0001
701.6 0.0001
701.7 0.0001
701.8 0.0001
701.9 0.0001
702 0.0001
702.1 9.5e-05
702.2 9e-05
702.3 8.5e-05
702.4 8e-05
702.5 7.5e-05
702.6 7e-05
702.7 6.5e-05
702.8 6e-05
702.9 5.5e-05
703 5e-05
703.1 5e-05
703.2 5e-05
703.3 5e-05
703.4 5e-05
703.5 5e-05
703.6 5e-05
703.7 5e-05
703.8 5e-05
703.9 5e-05
704 5e-05
704.1 5e-05
704.2 5e-05
704.3 5e-05
704.4 5e-05
704.5 5e-05
704.6 5e-05
704.7 5e-05
704.8 5e-05
704.9 5e-05
705 5e-05
705.1 5e-05
705.2 5e-05
705.3 5e-05
705.4 5e-05
705.5 5e-05
705.6 5e-05
705.7 5e-05
705.8 5e-05
705.9 5e-05
706 5e-05
706.1 4.5e-05
706.2 4e-05
706.3 3.5e-05
706.4 3e-05
706.5 2.5e-05
706.6 2e-05
706.7 1.5e-05
706.8 1e-05
706.9 5e-06
707 0.0
707.1 5e-06
707.2 1e-05
707.3 1.5e-05
707.4 2e-05
707.5 2.5e-05
707.6 3e-05
707.7 3.5e-05
707.8 4e-05
707.9 4.5e-05
708 5e-05
708.1 4.5e-05
708.2 4e-05
708.3 3.5e-05
708.4 3e-05
708.5 2.5e-05
708.6 2e-05
708.7 1.5e-05
708.8 1e-05
708.9 5e-06
709 0.0
709.1 0.0
709.2 0.0
709.3 0.0
709.4 0.0
709.5 0.0
709.6 0.0
709.7 0.0
709.8 0.0
709.9 0.0
710 0.0
710.1 0.0
710.2 0.0
710.3 0.0
710.4 0.0
710.5 0.0
710.6 0.0
710.7 0.0
710.8 0.0
710.9 0.0
711 0.0
711.1 0.0
711.2 0.0
711.3 0.0
711.4 0.0
711.5 0.0
711.6 0.0
711.7 0.0
711.8 0.0
711.9 0.0
712 0.0
712.1 0.0
712.2 0.0
712.3 0.0
712.4 0.0
712.5 0.0
712.6 0.0
712.7 0.0
712.8 0.0
712.9 0.0
713 0.0
713.1 0.0
713.2 0.0
713.3 0.0
713.4 0.0
713.5 0.0
713.6 0.0
713.7 0.0
713.8 0.0
713.9 0.0
714 0.0
714.1 0.0
714.2 0.0
714.3 0.0
714.4 0.0
714.5 0.0
714.6 0.0
714.7 0.0
714.8 0.0
714.9 0.0
715 0.0
715.1 0.0
715.2 0.0
715.3 0.0
715.4 0.0
715.5 0.0
715.6 0.0
715.7 0.0
715.8 0.0
715.9 0.0
716 0.0
716.1 0.0
716.2 0.0
716.3 0.0
716.4 0.0
716.5 0.0
716.6 0.0
716.7 0.0
716.8 0.0
716.9 0.0
717 0.0
717.1 0.0
717.2 0.0
717.3 0.0
717.4 0.0
717.5 0.0
717.6 0.0
717.7 0.0
717.8 0.0
717.9 0.0
718 0.0
718.1 0.0
718.2 0.0
718.3 0.0
718.4 0.0
718.5 0.0
718.6 0.0
718.7 0.0
718.8 0.0
718.9 0.0
719 0.0
719.1 0.0
719.2 0.0
719.3 0.0
719.4 0.0
719.5 0.0
719.6 0.0
719.7 0.0
719.8 0.0
719.9 0.0
720 0.0
720.1 0.0
720.2 0.0
720.3 0.0
720.4 0.0
720.5 0.0
720.6 0.0
720.7 0.0
720.8 0.0
720.9 0.0
721 0.0
721.1 0.0
721.2 0.0
721.3 0.0
721.4 0.0
721.5 0.0
721.6 0.0
721.7 0.0
721.8 0.0
721.9 0.0
722 0.0
722.1 0.0
722.2 0.0
722.3 0.0
722.4 0.0
722.5 0.0
722.6 0.0
722.7 0.0
722.8 0.0
722.9 0.0
723 0.0
723.1 0.0
723.2 0.0
723.3 0.0
723.4 0.0
723.5 0.0
723.6 0.0
723.7 0.0
723.8 0.0
723.9 0.0
724 0.0
724.1 0.0
724.2 0.0
724.3 0.0
724.4 0.0
724.5 0.0
724.6 0.0
724.7 0.0
724.8 0.0
724.9 0.0
725 0.0
725.1 0.0
725.2 0.0
725.3 0.0
725.4 0.0
725.5 0.0
725.6 0.0
725.7 0.0
725.8 0.0
725.9 0.0
726 0.0
726.1 0.0
726.2 0.0
726.3 0.0
726.4 0.0
726.5 0.0
726.6 0.0
726.7 0.0
726.8 0.0
726.9 0.0
727 0.0
727.1 0.0
727.2 0.0
727.3 0.0
727.4 0.0
727.5 0.0
727.6 0.0
727.7 0.0
727.8 0.0
727.9 0.0
728 0.0
728.1 0.0
728.2 0.0
728.3 0.0
728.4 0.0
728.5 0.0
728.6 0.0
728.7 0.0
728.8 0.0
728.9 0.0
729 0.0
729.1 0.0
729.2 0.0
729.3 0.0
729.4 0.0
729.5 0.0
729.6 0.0
729.7 0.0
729.8 0.0
729.9 0.0
730 0.0
730.1 0.0
730.2 0.0
730.3 0.0
730.4 0.0
730.5 0.0
730.6 0.0
730.7 0.0
730.8 0.0
730.9 0.0
731 0.0
731.1 -5e-06
731.2 -1e-05
731.3 -1.5e-05
731.4 -2e-05
731.5 -2.5e-05
731.6 -3e-05
731.7 -3.5e-05
731.8 -4e-05
731.9 -4.5e-05
732 -5e-05
732.1 -4.5e-05
732.2 -4e-05
732.3 -3.5e-05
732.4 -3e-05
732.5 -2.5e-05
732.6 -2e-05
732.7 -1.5e-05
732.8 -1e-05
732.9 -5e-06
733 0.0
733.1 0.0
733.2 0.0
733.3 0.0
733.4 0.0
733.5 0.0
733.6 0.0
733.7 0.0
733.8 0.0
733.9 0.0
734 0.0
734.1 -5e-06
734.2 -1e-05
734.3 -1.5e-05
734.4 -2e-05
734.5 -2.5e-05
734.6 -3e-05
734.7 -3.5e-05
734.8 -4e-05
734.9 -4.5e-05
735 -5e-05
735.1 -4.5e-05
735.2 -4e-05
735.3 -3.5e-05
735.4 -3e-05
735.5 -2.5e-05
735.6 -2e-05
735.7 -1.5e-05
735.8 -1e-05
735.9 -5e-06
736 0.0
736.1 0.0
736.2 0.0
736.3 0.0
736.4 0.0
736.5 0.0
736.6 0.0
736.7 0.0
736.8 0.0
736.9 0.0
737 0.0
737.1 0.0
737.2 0.0
737.3 0.0
737.4 0.0
737.5 0.0
737.6 0.0
737.7 0.0
737.8 0.0
737.9 0.0
738 0.0
738.1 0.0
738.2 0.0
738.3 0.0
738.4 0.0
738.5 0.0
738.6 0.0
738.7 0.0
738.8 0.0
738.9 0.0
739 0.0
739.1 0.0
739.2 0.0
739.3 0.0
739.4 0.0
739.5 0.0
739.6 0.0
739.7 0.0
739.8 0.0
739.9 0.0
740 0.0
740.1 0.0
740.2 0.0
740.3 0.0
740.4 0.0
740.5 0.0
740.6 0.0
740.7 0.0
740.8 0.0
740.9 0.0
741 0.0
741.1 0.0
741.2 0.0
741.3 0.0
741.4 0.0
741.5 0.0
741.6 0.0
741.7 0.0
741.8 0.0
741.9 0.0
742 0.0
742.1 0.0
742.2 0.0
742.3 0.0
742.4 0.0
742.5 0.0
742.6 0.0
742.7 0.0
742.8 0.0
742.9 0.0
743 0.0
743.1 0.0
743.2 0.0
743.3 0.0
743.4 0.0
743.5 0.0
743.6 0.0
743.7 0.0
743.8 0.0
743.9 0.0
744 0.0
744.1 0.0
744.2 0.0
744.3 0.0
744.4 0.0
744.5 0.0
744.6 0.0
744.7 0.0
744.8 0.0
744.9 0.0
745 0.0
745.1 0.0
745.2 0.0
745.3 0.0
745.4 0.0
745.5 0.0
745.6 0.0
745.7 0.0
745.8 0.0
745.9 0.0
746 0.0
746.1 0.0
746.2 0.0
746.3 0.0
746.4 0.0
746.5 0.0
746.6 0.0
746.7 0.0
746.8 0.0
746.9 0.0
747 0.0
747.1 0.0
747.2 0.0
747.3 0.0
747.4 0.0
747.5 0.0
747.6 0.0
747.7 0.0
747.8 0.0
747.9 0.0
748 0.0
748.1 0.0
748.2 0.0
748.3 0.0
748.4 0.0
748.5 0.0
748.6 0.0
748.7 0.0
748.8 0.0
748.9 0.0
749 0.0
749.1 0.0
749.2 0.0
749.3 0.0
749.4 0.0
749.5 0.0
749.6 0.0
749.7 0.0
749.8 0.0
749.9 0.0
750 0.0
750.1 0.0
750.2 0.0
750.3 0.0
750.4 0.0
750.5 0.0
750.6 0.0
750.7 0.0
750.8 0.0
750.9 0.0
751 0.0
751.1 -5e-06
751.2 -1e-05
751.3 -1.5e-05
751.4 -2e-05
751.5 -2.5e-05
751.6 -3e-05
751.7 -3.5e-05
751.8 -4e-05
751.9 -4.5e-05
752 -5e-05
752.1 -4.5e-05
752.2 -4e-05
752.3 -3.5e-05
752.4 -3e-05
752.5 -2.5e-05
752.6 -2e-05
752.7 -1.5e-05
752.8 -1e-05
752.9 -5e-06
753 0.0
753.1 0.0
753.2 0.0
753.3 0.0
753.4 0.0
753.5 0.0
753.6 0.0
753.7 0.0
753.8 0.0
753.9 0.0
754 0.0
754.1 -5e-06
754.2 -1e-05
754.3 -1.5e-05
754.4 -2e-05
754.5 -2.5e-05
754.6 -3e-05
754.7 -3.5e-05
754.8 -4e-05
754.9 -4.5e-05
755 -5e-05
755.1 -4.5e-05
755.2 -4e-05
755.3 -3.5e-05
755.4 -3e-05
755.5 -2.5e-05
755.6 -2e-05
755.7 -1.5e-05
755.8 -1e-05
755.9 -5e-06
756 0.0
756.1 0.0
756.2 0.0
756.3 0.0
756.4 0.0
756.5 0.0
756.6 0.0
756.7 0.0
756.8 0.0
756.9 0.0
757 0.0
757.1 0.0
757.2 0.0
757.3 0.0
757.4 0.0
757.5 0.0
757.6 0.0
757.7 0.0
757.8 0.0
757.9 0.0
758 0.0
758.1 0.0
758.2 0.0
758.3 0.0
758.4 0.0
758.5 0.0
758.6 0.0
758.7 0.0
758.8 0.0
758.9 0.0
759 0.0
759.1 0.0
759.2 0.0
759.3 0.0
759.4 0.0
759.5 0.0
759.6 0.0
759.7 0.0
759.8 0.0
759.9 0.0
760 0.0
760.1 0.0
760.2 0.0
760.3 0.0
760.4 0.0
760.5 0.0
760.6 0.0
760.7 0.0
760.8 0.0
760.9 0.0
761 0.0
761.1 0.0
761.2 0.0
761.3 0.0
761.4 0.0
761.5 0.0
761.6 0.0
761.7 0.0
761.8 0.0
761.9 0.0
762 0.0
762.1 0.0
762.2 0.0
762.3 0.0
762.4 0.0
762.5 0.0
762.6 0.0
762.7 0.0
762.8 0.0
762.9 0.0
763 0.0
763.1 0.0
763.2 0.0
763.3 0.0
763.4 0.0
763.5 0.0
763.6 0.0
763.7 0.0
763.8 0.0
763.9 0.0
764 0.0
764.1 0.0
764.2 0.0
764.3 0.0
764.4 0.0
764.5 0.0
764.6 0.0
764.7 0.0
764.8 0.0
764.9 0.0
765 0.0
765.1 0.0
765.2 0.0
765.3 0.0
765.4 0.0
765.5 0.0
765.6 0.0
765.7 0.0
765.8 0.0
765.9 0.0
766 0.0
766.1 0.0
766.2 0.0
766.3 0.0
766.4 0.0
766.5 0.0
766.6 0.0
766.7 0.0
766.8 0.0
766.9 0.0
767 0.0
767.1 0.0
767.2 0.0
767.3 0.0
767.4 0.0
767.5 0.0
767.6 0.0
767.7 0.0
767.8 0.0
767.9 0.0
768 0.0
768.1 0.0
768.2 0.0
768.3 0.0
768.4 0.0
768.5 0.0
768.6 0.0
768.7 0.0
768.8 0.0
768.9 0.0
769 0.0
769.1 0.0
769.2 0.0
769.3 0.0
769.4 0.0
769.5 0.0
769.6 0.0
769.7 0.0
769.8 0.0
769.9 0.0
770 0.0
770.1 -5e-06
770.2 -1e-05
770.3 -1.5e-05
770.4 -2e-05
770.5 -2.5e-05
770.6 -3e-05
770.7 -3.5e-05
770.8 -4e-05
770.9 -4.5e-05
771 -5e-05
771.1 -4.5e-05
771.2 -4e-05
771.3 -3.5e-05
771.4 -3e-05
771.5 -2.5e-05
771.6 -2e-05
771.7 -1.5e-05
771.8 -1e-05
771.9 -5e-06
772 0.0
772.1 0.0
772.2 0.0
772.3 0.0
772.4 0.0
772.5 0.0
772.6 0.0
772.7 0.0
772.8 0.0
772.9 0.0
773 0.0
773.1 0.0
773.2 0.0
773.3 0.0
773.4 0.0
773.5 0.0
773.6 0.0
773.7 0.0
773.8 0.0
773.9 0.0
774 0.0
774.1 0.0
774.2 0.0
774.3 0.0
774.4 0.0
774.5 0.0
774.6 0.0
774.7 0.0
774.8 0.0
774.9 0.0
775 0.0
775.1 0.0
775.2 0.0
775.3 0.0
775.4 0.0
775.5 0.0
775.6 0.0
775.7 0.0
775.8 0.0
775.9 0.0
776 0.0
776.1 0.0
776.2 0.0
776.3 0.0
776.4 0.0
776.5 0.0
776.6 0.0
776.7 0.0
776.8 0.0
776.9 0.0
777 0.0
777.1 0.0
777.2 0.0
777.3 0.0
777.4 0.0
777.5 0.0
777.6 0.0
777.7 0.0
777.8 0.0
777.9 0.0
778 0.0
778.1 0.0
778.2 0.0
778.3 0.0
778.4 0.0
778.5 0.0
778.6 0.0
778.7 0.0
778.8 0.0
778.9 0.0
779 0.0
779.1 0.0
779.2 0.0
779.3 0.0
779.4 0.0
779.5 0.0
779.6 0.0
779.7 0.0
779.8 0.0
779.9 0.0
780 0.0
780.1 0.0
780.2 0.0
780.3 0.0
780.4 0.0
780.5 0.0
780.6 0.0
780.7 0.0
780.8 0.0
780.9 0.0
781 0.0
781.1 0.0
781.2 0.0
781.3 0.0
781.4 0.0
781.5 0.0
781.6 0.0
781.7 0.0
781.8 0.0
781.9 0.0
782 0.0
782.1 0.0
782.2 0.0
782.3 0.0
782.4 0.0
782.5 0.0
782.6 0.0
782.7 0.0
782.8 0.0
782.9 0.0
783 0.0
783.1 0.0
783.2 0.0
783.3 0.0
783.4 0.0
783.5 0.0
783.6 0.0
783.7 0.0
783.8 0.0
783.9 0.0
784 0.0
784.1 0.0
784.2 0.0
784.3 0.0
784.4 0.0
784.5 0.0
784.6 0.0
784.7 0.0
784.8 0.0
784.9 0.0
785 0.0
785.1 0.0
785.2 0.0
785.3 0.0
785.4 0.0
785.5 0.0
785.6 0.0
785.7 0.0
785.8 0.0
785.9 0.0
786 0.0
786.1 0.0
786.2 0.0
786.3 0.0
786.4 0.0
786.5 0.0
786.6 0.0
786.7 0.0
786.8 0.0
786.9 0.0
787 0.0
787.1 0.0
787.2 0.0
787.3 0.0
787.4 0.0
787.5 0.0
787.6 0.0
787.7 0.0
787.8 0.0
787.9 0.0
788 0.0
788.1 0.0
788.2 0.0
788.3 0.0
788.4 0.0
788.5 0.0
788.6 0.0
788.7 0.0
788.8 0.0
788.9 0.0
789 0.0
789.1 0.0
789.2 0.0
789.3 0.0
789.4 0.0
789.5 0.0
789.6 0.0
789.7 0.0
789.8 0.0
789.9 0.0
790 0.0
790.1 0.0
790.2 0.0
790.3 0.0
790.4 0.0
790.5 0.0
790.6 0.0
790.7 0.0
790.8 0.0
790.9 0.0
791 0.0
791.1 0.0
791.2 0.0
791.3 0.0
791.4 0.0
791.5 0.0
791.6 0.0
791.7 0.0
791.8 0.0
791.9 0.0
792 0.0
792.1 0.0
792.2 0.0
792.3 0.0
792.4 0.0
792.5 0.0
792.6 0.0
792.7 0.0
792.8 0.0
792.9 0.0
793 0.0
793.1 0.0
793.2 0.0
793.3 0.0
793.4 0.0
793.5 0.0
793.6 0.0
793.7 0.0
793.8 0.0
793.9 0.0
794 0.0
794.1 0.0
794.2 0.0
794.3 0.0
794.4 0.0
794.5 0.0
794.6 0.0
794.7 0.0
794.8 0.0
794.9 0.0
795 0.0
795.1 0.0
795.2 0.0
795.3 0.0
795.4 0.0
795.5 0.0
795.6 0.0
795.7 0.0
795.8 0.0
795.9 0.0
796 0.0
796.1 0.0
796.2 0.0
796.3 0.0
796.4 0.0
796.5 0.0
796.6 0.0
796.7 0.0
796.8 0.0
796.9 0.0
797 0.0
797.1 0.0
797.2 0.0
797.3 0.0
797.4 0.0
797.5 0.0
797.6 0.0
797.7 0.0
797.8 0.0
797.9 0.0
798 0.0
798.1 0.0
798.2 0.0
798.3 0.0
798.4 0.0
798.5 0.0
798.6 0.0
798.7 0.0
798.8 0.0
798.9 0.0
799 0.0
799.1 0.0
799.2 0.0
799.3 0.0
799.4 0.0
799.5 0.0
799.6 0.0
799.7 0.0
799.8 0.0
799.9 0.0
800 0.0
800.1 0.0
800.2 0.0
800.3 0.0
800.4 0.0
800.5 0.0
800.6 0.0
800.7 0.0
800.8 0.0
800.9 0.0
801 0.0
801.1 0.0
801.2 0.0
801.3 0.0
801.4 0.0
801.5 0.0
801.6 0.0
801.7 0.0
801.8 0.0
801.9 0.0
802 0.0
802.1 0.0
802.2 0.0
802.3 0.0
802.4 0.0
802.5 0.0
802.6 0.0
802.7 0.0
802.8 0.0
802.9 0.0
803 0.0
803.1 0.0
803.2 0.0
803.3 0.0
803.4 0.0
803.5 0.0
803.6 0.0
803.7 0.0
803.8 0.0
803.9 0.0
804 0.0
804.1 0.0
804.2 0.0
804.3 0.0
804.4 0.0
804.5 0.0
804.6 0.0
804.7 0.0
804.8 0.0
804.9 0.0
805 0.0
805.1 5e-06
805.2 1e-05
805.3 1.5e-05
805.4 2e-05
805.5 2.5e-05
805.6 3e-05
805.7 3.5e-05
805.8 4e-05
805.9 4.5e-05
806 5e-05
806.1 4.5e-05
806.2 4e-05
806.3 3.5e-05
806.4 3e-05
806.5 2.5e-05
806.6 2e-05
806.7 1.5e-05
806.8 1e-05
806.9 5e-06
807 0.0
807.1 0.0
807.2 0.0
807.3 0.0
807.4 0.0
807.5 0.0
807.6 0.0
807.7 0.0
807.8 0.0
807.9 0.0
808 0.0
808.1 -5e-06
808.2 -1e-05
808.3 -1.5e-05
808.4 -2e-05
808.5 -2.5e-05
808.6 -3e-05
808.7 -3.5e-05
808.8 -4e-05
808.9 -4.5e-05
809 -5e-05
809.1 -7.5e-05
809.2 -0.0001
809.3 -0.000125
809.4 -0.00015
809.5 -0.000175
809.6 -0.0002
809.7 -0.000225
809.8 -0.00025
809.9 -0.000275
810 -0.0003
810.1 -0.00027
810.2 -0.00024
810.3 -0.00021
810.4 -0.00018
810.5 -0.00015
810.6 -0.00012
810.7 -9e-05
810.8 -6e-05
810.9 -3e-05
811 0.0
811.1 0.0
811.2 0.0
811.3 0.0
811.4 0.0
811.5 0.0
811.6 0.0
811.7 0.0
811.8 0.0
811.9 0.0
812 0.0
812.1 0.0
812.2 0.0
812.3 0.0
812.4 0.0
812.5 0.0
812.6 0.0
812.7 0.0
812.8 0.0
812.9 0.0
813 0.0
813.1 0.0
813.2 0.0
813.3 0.0
813.4 0.0
813.5 0.0
813.6 0.0
813.7 0.0
813.8 0.0
813.9 0.0
814 0.0
814.1 0.0
814.2 0.0
814.3 0.0
814.4 0.0
814.5 0.0
814.6 0.0
814.7 0.0
814.8 0.0
814.9 0.0
815 0.0
815.1 0.0
815.2 0.0
815.3 0.0
815.4 0.0
815.5 0.0
815.6 0.0
815.7 0.0
815.8 0.0
815.9 0.0
816 0.0
816.1 0.0
816.2 0.0
816.3 0.0
816.4 0.0
816.5 0.0
816.6 0.0
816.7 0.0
816.8 0.0
816.9 0.0
817 0.0
817.1 0.0
817.2 0.0
817.3 0.0
817.4 0.0
817.5 0.0
817.6 0.0
817.7 0.0
817.8 0.0
817.9 0.0
818 0.0
818.1 0.0
818.2 0.0
818.3 0.0
818.4 0.0
818.5 0.0
818.6 0.0
818.7 0.0
818.8 0.0
818.9 0.0
819 0.0
819.1 0.0
819.2 0.0
819.3 0.0
819.4 0.0
819.5 0.0
819.6 0.0
819.7 0.0
819.8 0.0
819.9 0.0
820 0.0
820.1 0.0
820.2 0.0
820.3 0.0
820.4 0.0
820.5 0.0
820.6 0.0
820.7 0.0
820.8 0.0
820.9 0.0
821 0.0
821.1 0.0
821.2 0.0
821.3 0.0
821.4 0.0
821.5 0.0
821.6 0.0
821.7 0.0
821.8 0.0
821.9 0.0
822 0.0
822.1 0.0
822.2 0.0
822.3 0.0
822.4 0.0
822.5 0.0
822.6 0.0
822.7 0.0
822.8 0.0
822.9 0.0
823 0.0
823.1 0.0
823.2 0.0
823.3 0.0
823.4 0.0
823.5 0.0
823.6 0.0
823.7 0.0
823.8 0.0
823.9 0.0
824 0.0
824.1 0.0
824.2 0.0
824.3 0.0
824.4 0.0
824.5 0.0
824.6 0.0
824.7 0.0
824.8 0.0
824.9 0.0
825 0.0
825.1 0.0
825.2 0.0
825.3 0.0
825.4 0.0
825.5 0.0
825.6 0.0
825.7 0.0
825.8 0.0
825.9 0.0
826 0.0
826.1 0.0
826.2 0.0
826.3 0.0
826.4 0.0
826.5 0.0
826.6 0.0
826.7 0.0
826.8 0.0
826.9 0.0
827 0.0
827.1 0.0
827.2 0.0
827.3 0.0
827.4 0.0
827.5 0.0
827.6 0.0
827.7 0.0
827.8 0.0
827.9 0.0
828 0.0
828.1 0.0
828.2 0.0
828.3 0.0
828.4 0.0
828.5 0.0
828.6 0.0
828.7 0.0
828.8 0.0
828.9 0.0
829 0.0
829.1 0.0
829.2 0.0
829.3 0.0
829.4 0.0
829.5 0.0
829.6 0.0
829.7 0.0
829.8 0.0
829.9 0.0
830 0.0
830.1 0.0
830.2 0.0
830.3 0.0
830.4 0.0
830.5 0.0
830.6 0.0
830.7 0.0
830.8 0.0
830.9 0.0
831 0.0
831.1 0.0
831.2 0.0
831.3 0.0
831.4 0.0
831.5 0.0
831.6 0.0
831.7 0.0
831.8 0.0
831.9 0.0
832 0.0
832.1 0.0
832.2 0.0
832.3 0.0
832.4 0.0
832.5 0.0
832.6 0.0
832.7 0.0
832.8 0.0
832.9 0.0
833 0.0
833.1 0.0
833.2 0.0
833.3 0.0
833.4 0.0
833.5 0.0
833.6 0.0
833.7 0.0
833.8 0.0
833.9 0.0
834 0.0
834.1 0.0
834.2 0.0
834.3 0.0
834.4 0.0
834.5 0.0
834.6 0.0
834.7 0.0
834.8 0.0
834.9 0.0
835 0.0
835.1 5e-06
835.2 1e-05
835.3 1.5e-05
835.4 2e-05
835.5 2.5e-05
835.6 3e-05
835.7 3.5e-05
835.8 4e-05
835.9 4.5e-05
836 5e-05
836.1 4.5e-05
836.2 4e-05
836.3 3.5e-05
836.4 3e-05
836.5 2.5e-05
836.6 2e-05
836.7 1.5e-05
836.8 1e-05
836.9 5e-06
837 0.0
837.1 0.0
837.2 0.0
837.3 0.0
837.4 0.0
837.5 0.0
837.6 0.0
837.7 0.0
837.8 0.0
837.9 0.0
838 0.0
838.1 5e-06
838.2 1e-05
838.3 1.5e-05
838.4 2e-05
838.5 2.5e-05
838.6 3e-05
838.7 3.5e-05
838.8 4e-05
838.9 4.5e-05
839 5e-05
839.1 5e-05
839.2 5e-05
839.3 5e-05
839.4 5e-05
839.5 5e-05
839.6 5e-05
839.7 5e-05
839.8 5e-05
839.9 5e-05
840 5e-05
840.1 5e-05
840.2 5e-05
840.3 5e-05
840.4 5e-05
840.5 5e-05
840.6 5e-05
840.7 5e-05
840.8 5e-05
840.9 5e-05
841 5e-05
841.1 5e-05
841.2 5e-05
841.3 5e-05
841.4 5e-05
841.5 5e-05
841.6 5e-05
841.7 5e-05
841.8 5e-05
841.9 5e-05
842 5e-05
842.1 5e-05
842.2 5e-05
842.3 5e-05
842.4 5e-05
842.5 5e-05
842.6 5e-05
842.7 5e-05
842.8 5e-05
842.9 5e-05
843 5e-05
843.1 4.5e-05
843.2 4e-05
843.3 3.5e-05
843.4 3e-05
843.5 2.5e-05
843.6 2e-05
843.7 1.5e-05
843.8 1e-05
843.9 5e-06
844 0.0
844.1 5e-06
844.2 1e-05
844.3 1.5e-05
844.4 2e-05
844.5 2.5e-05
844.6 3e-05
844.7 3.5e-05
844.8 4e-05
844.9 4.5e-05
845 5e-05
845.1 4.5e-05
845.2 4e-05
845.3 3.5e-05
845.4 3e-05
845.5 2.5e-05
845.6 2e-05
845.7 1.5e-05
845.8 1e-05
845.9 5e-06
846 0.0
846.1 0.0
846.2 0.0
846.3 0.0
846.4 0.0
846.5 0.0
846.6 0.0
846.7 0.0
846.8 0.0
846.9 0.0
847 0.0
847.1 0.0
847.2 0.0
847.3 0.0
847.4 0.0
847.5 0.0
847.6 0.0
847.7 0.0
847.8 0.0
847.9 0.0
848 0.0
848.1 0.0
848.2 0.0
848.3 0.0
848.4 0.0
848.5 0.0
848.6 0.0
848.7 0.0
848.8 0.0
848.9 0.0
849 0.0
849.1 0.0
849.2 0.0
849.3 0.0
849.4 0.0
849.5 0.0
849.6 0.0
849.7 0.0
849.8 0.0
849.9 0.0
850 0.0
850.1 5e-06
850.2 1e-05
850.3 1.5e-05
850.4 2e-05
850.5 2.5e-05
850.6 3e-05
850.7 3.5e-05
850.8 4e-05
850.9 4.5e-05
851 5e-05
851.1 5e-05
851.2 5e-05
851.3 5e-05
851.4 5e-05
851.5 5e-05
851.6 5e-05
851.7 5e-05
851.8 5e-05
851.9 5e-05
852 5e-05
852.1 5e-05
852.2 5e-05
852.3 5e-05
852.4 5e-05
852.5 5e-05
852.6 5e-05
852.7 5e-05
852.8 5e-05
852.9 5e-05
853 5e-05
853.1 4.5e-05
853.2 4e-05
853.3 3.5e-05
853.4 3e-05
853.5 2.5e-05
853.6 2e-05
853.7 1.5e-05
853.8 1e-05
853.9 5e-06
854 0.0
854.1 0.0
854.2 0.0
854.3 0.0
854.4 0.0
854.5 0.0
854.6 0.0
854.7 0.0
854.8 0.0
854.9 0.0
855 0.0
855.1 0.0
855.2 0.0
855.3 0.0
855.4 0.0
855.5 0.0
855.6 0.0
855.7 0.0
855.8 0.0
855.9 0.0
856 0.0
856.1 0.0
856.2 0.0
856.3 0.0
856.4 0.0
856.5 0.0
856.6 0.0
856.7 0.0
856.8 0.0
856.9 0.0
857 0.0
857.1 5e-06
857.2 1e-05
857.3 1.5e-05
857.4 2e-05
857.5 2.5e-05
857.6 3e-05
857.7 3.5e-05
857.8 4e-05
857.9 4.5e-05
858 5e-05
858.1 5e-05
858.2 5e-05
858.3 5e-05
858.4 5e-05
858.5 5e-05
858.6 5e-05
858.7 5e-05
858.8 5e-05
858.9 5e-05
859 5e-05
859.1 5.5e-05
859.2 6e-05
859.3 6.5e-05
859.4 7e-05
859.5 7.5e-05
859.6 8e-05
859.7 8.5e-05
859.8 9e-05
859.9 9.5e-05
860 0.0001
860.1 0.000155
860.2 0.00021
860.3 0.000265
860.4 0.00032
860.5 0.000375
860.6 0.00043
860.7 0.000485
860.8 0.00054
860.9 0.000595
861 0.00065
861.1 0.000645
861.2 0.00064
861.3 0.000635
861.4 0.00063
861.5 0.000625
861.6 0.00062
861.7 0.000615
861.8 0.00061
861.9 0.000605
862 0.0006
862.1 0.00054
862.2 0.00048
862.3 0.00042
862.4 0.00036
862.5 0.0003
862.6 0.00024
862.7 0.00018
862.8 0.00012
862.9 6e-05
863 0.0
863.1 4e-05
863.2 8e-05
863.3 0.00012
863.4 0.00016
863.5 0.0002
863.6 0.00024
863.7 0.00028
863.8 0.00032
863.9 0.00036
864 0.0004
864.1 0.000335
864.2 0.00027
864.3 0.000205
864.4 0.00014
864.5 7.5e-05
864.6 1e-05
864.7 -5.5e-05
864.8 -0.00012
864.9 -0.000185
865 -0.00025
865.1 -0.00021
865.2 -0.00017
865.3 -0.00013
865.4 -9e-05
865.5 -5e-05
865.6 -1e-05
865.7 3e-05
865.8 7e-05
865.9 0.00011
866 0.00015
866.1 0.00013
866.2 0.00011
866.3 9e-05
866.4 7e-05
866.5 5e-05
866.6 3e-05
866.7 1e-05
866.8 -1e-05
866.9 -3e-05
867 -5e-05
867.1 8e-05
867.2 0.00021
867.3 0.00034
867.4 0.00047
867.5 0.0006
867.6 0.00073
867.7 0.00086
867.8 0.00099
867.9 0.00112
868 0.00125
868.1 0.001085
868.2 0.00092
868.3 0.000755
868.4 0.00059
868.5 0.000425
868.6 0.00026
868.7 9.5e-05
868.8 -7e-05
868.9 -0.000235
869 -0.0004
869.1 -0.00035
869.2 -0.0003
869.3 -0.00025
869.4 -0.0002
869.5 -0.00015
869.6 -0.0001
869.7 -5e-05
869.8 0.0
869.9 5e-05
870 0.0001
870.1 8e-05
870.2 6e-05
870.3 4e-05
870.4 2e-05
870.5 0.0
870.6 -2e-05
870.7 -4e-05
870.8 -6e-05
870.9 -8e-05
871 -0.0001
871.1 -0.00017
871.2 -0.00024
871.3 -0.00031
871.4 -0.00038
871.5 -0.00045
871.6 -0.00052
871.7 -0.00059
871.8 -0.00066
871.9 -0.00073
872 -0.0008
872.1 -0.000695
872.2 -0.00059
872.3 -0.000485
872.4 -0.00038
872.5 -0.000275
872.6 -0.00017
872.7 -6.5e-05
872.8 4e-05
872.9 0.000145
873 0.00025
873.1 0.00012
873.2 -1e-05
873.3 -0.00014
873.4 -0.00027
873.5 -0.0004
873.6 -0.00053
873.7 -0.00066
873.8 -0.00079
873.9 -0.00092
874 -0.00105
874.1 -0.001005
874.2 -0.00096
874.3 -0.000915
874.4 -0.00087
874.5 -0.000825
874.6 -0.00078
874.7 -0.000735
874.8 -0.00069
874.9 -0.000645
875 -0.0006
875.1 -0.000555
875.2 -0.00051
875.3 -0.000465
875.4 -0.00042
875.5 -0.000375
875.6 -0.00033
875.7 -0.000285
875.8 -0.00024
875.9 -0.000195
876 -0.00015
876.1 -0.000205
876.2 -0.00026
876.3 -0.000315
876.4 -0.00037
876.5 -0.000425
876.6 -0.00048
876.7 -0.000535
876.8 -0.00059
876.9 -0.000645
877 -0.0007
877.1 -0.000615
877.2 -0.00053
877.3 -0.000445
877.4 -0.00036
877.5 -0.000275
877.6 -0.00019
877.7 -0.000105
877.8 -2e-05
877.9 6.5e-05
878 0.00015
878.1 2e-05
878.2 -0.00011
878.3 -0.00024
878.4 -0.00037
878.5 -0.0005
878.6 -0.00063
878.7 -0.00076
878.8 -0.00089
878.9 -0.00102
879 -0.00115
879.1 -0.000915
879.2 -0.00068
879.3 -0.000445
879.4 -0.00021
879.5 2.5e-05
879.6 0.00026
879.7 0.000495
879.8 0.00073
879.9 0.000965
880 0.0012
880.1 0.00124
880.2 0.00128
880.3 0.00132
880.4 0.00136
880.5 0.0014
880.6 0.00144
880.7 0.00148
880.8 0.00152
880.9 0.00156
881 0.0016
881.1 0.001465
881.2 0.00133
881.3 0.001195
881.4 0.00106
881.5 0.000925
881.6 0.00079
881.7 0.000655
881.8 0.00052
881.9 0.000385
882 0.00025
882.1 0.00023
882.2 0.00021
882.3 0.00019
882.4 0.00017
882.5 0.00015
882.6 0.00013
882.7 0.00011
882.8 9e-05
882.9 7e-05
883 5e-05
883.1 9e-05
883.2 0.00013
883.3 0.00017
883.4 0.00021
883.5 0.00025
883.6 0.00029
883.7 0.00033
883.8 0.00037
883.9 0.00041
884 0.00045
884.1 0.0005
884.2 0.00055
884.3 0.0006
884.4 0.00065
884.5 0.0007
884.6 0.00075
884.7 0.0008
884.8 0.00085
884.9 0.0009
885 0.00095
885.1 0.00098
885.2 0.00101
885.3 0.00104
885.4 0.00107
885.5 0.0011
885.6 0.00113
885.7 0.00116
885.8 0.00119
885.9 0.00122
886 0.00125
886.1 0.001105
886.2 0.00096
886.3 0.000815
886.4 0.00067
886.5 0.000525
886.6 0.00038
886.7 0.000235
886.8 9e-05
886.9 -5.5e-05
887 -0.0002
887.1 -0.00032
887.2 -0.00044
887.3 -0.00056
887.4 -0.00068
887.5 -0.0008
887.6 -0.00092
887.7 -0.00104
887.8 -0.00116
887.9 -0.00128
888 -0.0014
888.1 -0.001215
888.2 -0.00103
888.3 -0.000845
888.4 -0.00066
888.5 -0.000475
888.6 -0.00029
888.7 -0.000105
888.8 8e-05
888.9 0.000265
889 0.00045
889.1 0.00034
889.2 0.00023
889.3 0.00012
889.4 1e-05
889.5 -0.0001
889.6 -0.00021
889.7 -0.00032
889.8 -0.00043
889.9 -0.00054
890 -0.00065
890.1 -0.00041
890.2 -0.00017
890.3 7e-05
890.4 0.00031
890.5 0.00055
890.6 0.00079
890.7 0.00103
890.8 0.00127
890.9 0.00151
891 0.00175
891.1 0.001675
891.2 0.0016
891.3 0.001525
891.4 0.00145
891.5 0.001375
891.6 0.0013
891.7 0.001225
891.8 0.00115
891.9 0.001075
892 0.001
892.1 0.000995
892.2 0.00099
892.3 0.000985
892.4 0.00098
892.5 0.000975
892.6 0.00097
892.7 0.000965
892.8 0.00096
892.9 0.000955
893 0.00095
893.1 0.00093
893.2 0.00091
893.3 0.00089
893.4 0.00087
893.5 0.00085
893.6 0.00083
893.7 0.00081
893.8 0.00079
893.9 0.00077
894 0.00075
894.1 0.00063
894.2 0.00051
894.3 0.00039
894.4 0.00027
894.5 0.00015
894.6 3e-05
894.7 -9e-05
894.8 -0.00021
894.9 -0.00033
895 -0.00045
895.1 -0.000525
895.2 -0.0006
895.3 -0.000675
895.4 -0.00075
895.5 -0.000825
895.6 -0.0009
895.7 -0.000975
895.8 -0.00105
895.9 -0.001125
896 -0.0012
896.1 -0.00103
896.2 -0.00086
896.3 -0.00069
896.4 -0.00052
896.5 -0.00035
896.6 -0.00018
896.7 -1e-05
896.8 0.00016
896.9 0.00033
897 0.0005
897.1 0.000465
897.2 0.00043
897.3 0.000395
897.4 0.00036
897.5 0.000325
897.6 0.00029
897.7 0.000255
897.8 0.00022
897.9 0.000185
898 0.00015
898.1 0.000215
898.2 0.00028
898.3 0.000345
898.4 0.00041
898.5 0.000475
898.6 0.00054
898.7 0.000605
898.8 0.00067
898.9 0.000735
899 0.0008
899.1 0.000645
899.2 0.00049
899.3 0.000335
899.4 0.00018
899.5 2.5e-05
899.6 -0.00013
899.7 -0.000285
899.8 -0.00044
899.9 -0.000595
900 -0.00075
900.1 -0.00069
900.2 -0.00063
900.3 -0.00057
900.4 -0.00051
900.5 -0.00045
900.6 -0.00039
900.7 -0.00033
900.8 -0.00027
900.9 -0.00021
901 -0.00015
901.1 -0.000165
901.2 -0.00018
901.3 -0.000195
901.4 -0.00021
901.5 -0.000225
901.6 -0.00024
901.7 -0.000255
901.8 -0.00027
901.9 -0.000285
902 -0.0003
902.1 -0.00037
902.2 -0.00044
902.3 -0.00051
902.4 -0.00058
902.5 -0.00065
902.6 -0.00072
902.7 -0.00079
902.8 -0.00086
902.9 -0.00093
903 -0.001
903.1 -0.00092
903.2 -0.00084
903.3 -0.00076
903.4 -0.00068
903.5 -0.0006
903.6 -0.00052
903.7 -0.00044
903.8 -0.00036
903.9 -0.00028
904 -0.0002
904.1 -0.00023
904.2 -0.00026
904.3 -0.00029
904.4 -0.00032
904.5 -0.00035
904.6 -0.00038
904.7 -0.00041
904.8 -0.00044
904.9 -0.00047
905 -0.0005
905.1 -0.000415
905.2 -0.00033
905.3 -0.000245
905.4 -0.00016
905.5 -7.5e-05
905.6 1e-05
905.7 9.5e-05
905.8 0.00018
905.9 0.000265
906 0.00035
906.1 0.00024
906.2 0.00013
906.3 2e-05
906.4 -9e-05
906.5 -0.0002
906.6 -0.00031
906.7 -0.00042
906.8 -0.00053
906.9 -0.00064
907 -0.00075
907.1 -0.000745
907.2 -0.00074
907.3 -0.000735
907.4 -0.00073
907.5 -0.000725
907.6 -0.00072
907.7 -0.000715
907.8 -0.00071
907.9 -0.000705
908 -0.0007
908.1 -0.000695
908.2 -0.00069
908.3 -0.000685
908.4 -0.00068
908.5 -0.000675
908.6 -0.00067
908.7 -0.000665
908.8 -0.00066
908.9 -0.000655
909 -0.00065
909.1 -0.0005
909.2 -0.00035
909.3 -0.0002
909.4 -5e-05
909.5 0.0001
909.6 0.00025
909.7 0.0004
909.8 0.00055
909.9 0.0007
910 0.00085
910.1 0.000735
910.2 0.00062
910.3 0.000505
910.4 0.00039
910.5 0.000275
910.6 0.00016
910.7 4.5e-05
910.8 -7e-05
910.9 -0.000185
911 -0.0003
911.1 -0.000145
911.2 1e-05
911.3 0.000165
911.4 0.00032
911.5 0.000475
911.6 0.00063
911.7 0.000785
911.8 0.00094
911.9 0.001095
912 0.00125
912.1 0.001035
912.2 0.00082
912.3 0.000605
912.4 0.00039
912.5 0.000175
912.6 -4e-05
912.7 -0.000255
912.8 -0.00047
912.9 -0.000685
913 -0.0009
913.1 -0.00072
913.2 -0.00054
913.3 -0.00036
913.4 -0.00018
913.5 0.0
913.6 0.00018
913.7 0.00036
913.8 0.00054
913.9 0.00072
914 0.0009
914.1 0.00079
914.2 0.00068
914.3 0.00057
914.4 0.00046
914.5 0.00035
914.6 0.00024
914.7 0.00013
914.8 2e-05
914.9 -9e-05
915 -0.0002
915.1 -0.00025
915.2 -0.0003
915.3 -0.00035
915.4 -0.0004
915.5 -0.00045
915.6 -0.0005
915.7 -0.00055
915.8 -0.0006
915.9 -0.00065
916 -0.0007
916.1 -0.000765
916.2 -0.00083
916.3 -0.000895
916.4 -0.00096
916.5 -0.001025
916.6 -0.00109
916.7 -0.001155
916.8 -0.00122
916.9 -0.001285
917 -0.00135
917.1 -0.001125
917.2 -0.0009
917.3 -0.000675
917.4 -0.00045
917.5 -0.000225
917.6 0.0
917.7 0.000225
917.8 0.00045
917.9 0.000675
918 0.0009
918.1 0.0007
918.2 0.0005
918.3 0.0003
918.4 0.0001
918.5 -0.0001
918.6 -0.0003
918.7 -0.0005
918.8 -0.0007
918.9 -0.0009
919 -0.0011
919.1 -0.00077
919.2 -0.00044
919.3 -0.00011
919.4 0.00022
919.5 0.00055
919.6 0.00088
919.7 0.00121
919.8 0.00154
919.9 0.00187
920 0.0022
920.1 0.002035
920.2 0.00187
920.3 0.001705
920.4 0.00154
920.5 0.001375
920.6 0.00121
920.7 0.001045
920.8 0.00088
920.9 0.000715
921 0.00055
921.1 0.00045
921.2 0.00035
921.3 0.00025
921.4 0.00015
921.5 5e-05
921.6 -5e-05
921.7 -0.00015
921.8 -0.00025
921.9 -0.00035
922 -0.00045
922.1 -0.000435
922.2 -0.00042
922.3 -0.000405
922.4 -0.00039
922.5 -0.000375
922.6 -0.00036
922.7 -0.000345
922.8 -0.00033
922.9 -0.000315
923 -0.0003
923.1 -2.5e-05
923.2 0.00025
923.3 0.000525
923.4 0.0008
923.5 0.001075
923.6 0.00135
923.7 0.001625
923.8 0.0019
923.9 0.002175
924 0.00245
924.1 0.00232
924.2 0.00219
924.3 0.00206
924.4 0.00193
924.5 0.0018
924.6 0.00167
924.7 0.00154
924.8 0.00141
924.9 0.00128
925 0.00115
925.1 0.00113
925.2 0.00111
925.3 0.00109
925.4 0.00107
925.5 0.00105
925.6 0.00103
925.7 0.00101
925.8 0.00099
925.9 0.00097
926 0.00095
926.1 0.000885
926.2 0.00082
926.3 0.000755
926.4 0.00069
926.5 0.000625
926.6 0.00056
926.7 0.000495
926.8 0.00043
926.9 0.000365
927 0.0003
927.1 0.00018
927.2 6e-05
927.3 -6e-05
927.4 -0.00018
927.5 -0.0003
927.6 -0.00042
927.7 -0.00054
927.8 -0.00066
927.9 -0.00078
928 -0.0009
928.1 -0.000805
928.2 -0.00071
928.3 -0.000615
928.4 -0.00052
928.5 -0.000425
928.6 -0.00033
928.7 -0.000235
928.8 -0.00014
928.9 -4.5e-05
929 5e-05
929.1 2.5e-05
929.2 0.0
929.3 -2.5e-05
929.4 -5e-05
929.5 -7.5e-05
929.6 -0.0001
929.7 -0.000125
929.8 -0.00015
929.9 -0.000175
930 -0.0002
930.1 -0.000225
930.2 -0.00025
930.3 -0.000275
930.4 -0.0003
930.5 -0.000325
930.6 -0.00035
930.7 -0.000375
930.8 -0.0004
930.9 -0.000425
931 -0.00045
931.1 -0.000505
931.2 -0.00056
931.3 -0.000615
931.4 -0.00067
931.5 -0.000725
931.6 -0.00078
931.7 -0.000835
931.8 -0.00089
931.9 -0.000945
932 -0.001
932.1 -0.00091
932.2 -0.00082
932.3 -0.00073
932.4 -0.00064
932.5 -0.00055
932.6 -0.00046
932.7 -0.00037
932.8 -0.00028
932.9 -0.00019
933 -0.0001
933.1 -0.000205
933.2 -0.00031
933.3 -0.000415
933.4 -0.00052
933.5 -0.000625
933.6 -0.00073
933.7 -0.000835
933.8 -0.00094
933.9 -0.001045
934 -0.00115
934.1 -0.000585
934.2 -2e-05
934.3 0.000545
934.4 0.00111
934.5 0.001675
934.6 0.00224
934.7 0.002805
934.8 0.00337
934.9 0.003935
935 0.0045
935.1 0.00405
935.2 0.0036
935.3 0.00315
935.4 0.0027
935.5 0.00225
935.6 0.0018
935.7 0.00135
935.8 0.0009
935.9 0.00045
936 0.0
936.1 4.5e-05
936.2 9e-05
936.3 0.000135
936.4 0.00018
936.5 0.000225
936.6 0.00027
936.7 0.000315
936.8 0.00036
936.9 0.000405
937 0.00045
937.1 0.00042
937.2 0.00039
937.3 0.00036
937.4 0.00033
937.5 0.0003
937.6 0.00027
937.7 0.00024
937.8 0.00021
937.9 0.00018
938 0.00015
938.1 0.00014
938.2 0.00013
938.3 0.00012
938.4 0.00011
938.5 0.0001
938.6 9e-05
938.7 8e-05
938.8 7e-05
938.9 6e-05
939 5e-05
939.1 8.5e-05
939.2 0.00012
939.3 0.000155
939.4 0.00019
939.5 0.000225
939.6 0.00026
939.7 0.000295
939.8 0.00033
939.9 0.000365
940 0.0004
940.1 0.000475
940.2 0.00055
940.3 0.000625
940.4 0.0007
940.5 0.000775
940.6 0.00085
940.7 0.000925
940.8 0.001
940.9 0.001075
941 0.00115
941.1 0.00107
941.2 0.00099
941.3 0.00091
941.4 0.00083
941.5 0.00075
941.6 0.00067
941.7 0.00059
941.8 0.00051
941.9 0.00043
942 0.00035
942.1 0.000485
942.2 0.00062
942.3 0.000755
942.4 0.00089
942.5 0.001025
942.6 0.00116
942.7 0.001295
942.8 0.00143
942.9 0.001565
943 0.0017
943.1 0.001435
943.2 0.00117
943.3 0.000905
943.4 0.00064
943.5 0.000375
943.6 0.00011
943.7 -0.000155
943.8 -0.00042
943.9 -0.000685
944 -0.00095
944.1 -0.000775
944.2 -0.0006
944.3 -0.000425
944.4 -0.00025
944.5 -7.5e-05
944.6 0.0001
944.7 0.000275
944.8 0.00045
944.9 0.000625
945 0.0008
945.1 0.00076
945.2 0.00072
945.3 0.00068
945.4 0.00064
945.5 0.0006
945.6 0.00056
945.7 0.00052
945.8 0.00048
945.9 0.00044
946 0.0004
946.1 0.00027
946.2 0.00014
946.3 1e-05
946.4 -0.00012
946.5 -0.00025
946.6 -0.00038
946.7 -0.00051
946.8 -0.00064
946.9 -0.00077
947 -0.0009
947.1 -0.00079
947.2 -0.00068
947.3 -0.00057
947.4 -0.00046
947.5 -0.00035
947.6 -0.00024
947.7 -0.00013
947.8 -2e-05
947.9 9e-05
948 0.0002
948.1 0.000145
948.2 9e-05
948.3 3.5e-05
948.4 -2e-05
948.5 -7.5e-05
948.6 -0.00013
948.7 -0.000185
948.8 -0.00024
948.9 -0.000295
949 -0.00035
949.1 -0.00036
949.2 -0.00037
949.3 -0.00038
949.4 -0.00039
949.5 -0.0004
949.6 -0.00041
949.7 -0.00042
949.8 -0.00043
949.9 -0.00044
950 -0.00045
950.1 -0.000245
950.2 -4e-05
950.3 0.000165
950.4 0.00037
950.5 0.000575
950.6 0.00078
950.7 0.000985
950.8 0.00119
950.9 0.001395
951 0.0016
951.1 0.001515
951.2 0.00143
951.3 0.001345
951.4 0.00126
951.5 0.001175
951.6 0.00109
951.7 0.001005
951.8 0.00092
951.9 0.000835
952 0.00075
952.1 0.0006
952.2 0.00045
952.3 0.0003
952.4 0.00015
952.5 0.0
952.6 -0.00015
952.7 -0.0003
952.8 -0.00045
952.9 -0.0006
953 -0.00075
953.1 -0.000765
953.2 -0.00078
953.3 -0.000795
953.4 -0.00081
953.5 -0.000825
953.6 -0.00084
953.7 -0.000855
953.8 -0.00087
953.9 -0.000885
954 -0.0009
954.1 -0.00072
954.2 -0.00054
954.3 -0.00036
954.4 -0.00018
954.5 0.0
954.6 0.00018
954.7 0.00036
954.8 0.00054
954.9 0.00072
955 0.0009
955.1 0.000775
955.2 0.00065
955.3 0.000525
955.4 0.0004
955.5 0.000275
955.6 0.00015
955.7 2.5e-05
955.8 -0.0001
955.9 -0.000225
956 -0.00035
956.1 -0.00033
956.2 -0.00031
956.3 -0.00029
956.4 -0.00027
956.5 -0.00025
956.6 -0.00023
956.7 -0.00021
956.8 -0.00019
956.9 -0.00017
957 -0.00015
957.1 -0.000185
957.2 -0.00022
957.3 -0.000255
957.4 -0.00029
957.5 -0.000325
957.6 -0.00036
957.7 -0.000395
957.8 -0.00043
957.9 -0.000465
958 -0.0005
958.1 -0.00048
958.2 -0.00046
958.3 -0.00044
958.4 -0.00042
958.5 -0.0004
958.6 -0.00038
958.7 -0.00036
958.8 -0.00034
958.9 -0.00032
959 -0.0003
959.1 -0.000285
959.2 -0.00027
959.3 -0.000255
959.4 -0.00024
959.5 -0.000225
959.6 -0.00021
959.7 -0.000195
959.8 -0.00018
959.9 -0.000165
960 -0.00015
960.1 -0.00022
960.2 -0.00029
960.3 -0.00036
960.4 -0.00043
960.5 -0.0005
960.6 -0.00057
960.7 -0.00064
960.8 -0.00071
960.9 -0.00078
961 -0.00085
961.1 -0.00084
961.2 -0.00083
961.3 -0.00082
961.4 -0.00081
961.5 -0.0008
961.6 -0.00079
961.7 -0.00078
961.8 -0.00077
961.9 -0.00076
962 -0.00075
962.1 -0.000755
962.2 -0.00076
962.3 -0.000765
962.4 -0.00077
962.5 -0.000775
962.6 -0.00078
962.7 -0.000785
962.8 -0.00079
962.9 -0.000795
963 -0.0008
963.1 -0.000755
963.2 -0.00071
963.3 -0.000665
963.4 -0.00062
963.5 -0.000575
963.6 -0.00053
963.7 -0.000485
963.8 -0.00044
963.9 -0.000395
964 -0.00035
964.1 -0.000315
964.2 -0.00028
964.3 -0.000245
964.4 -0.00021
964.5 -0.000175
964.6 -0.00014
964.7 -0.000105
964.8 -7e-05
964.9 -3.5e-05
965 0.0
965.1 -4e-05
965.2 -8e-05
965.3 -0.00012
965.4 -0.00016
965.5 -0.0002
965.6 -0.00024
965.7 -0.00028
965.8 -0.00032
965.9 -0.00036
966 -0.0004
966.1 -0.00019
966.2 2e-05
966.3 0.00023
966.4 0.00044
966.5 0.00065
966.6 0.00086
966.7 0.00107
966.8 0.00128
966.9 0.00149
967 0.0017
967.1 0.00169
967.2 0.00168
967.3 0.00167
967.4 0.00166
967.5 0.00165
967.6 0.00164
967.7 0.00163
967.8 0.00162
967.9 0.00161
968 0.0016
968.1 0.00143
968.2 0.00126
968.3 0.00109
968.4 0.00092
968.5 0.00075
968.6 0.00058
968.7 0.00041
968.8 0.00024
968.9 7e-05
969 -0.0001
969.1 -0.00013
969.2 -0.00016
969.3 -0.00019
969.4 -0.00022
969.5 -0.00025
969.6 -0.00028
969.7 -0.00031
969.8 -0.00034
969.9 -0.00037
970 -0.0004
970.1 -0.000245
970.2 -9e-05
970.3 6.5e-05
970.4 0.00022
970.5 0.000375
970.6 0.00053
970.7 0.000685
970.8 0.00084
970.9 0.000995
971 0.00115
971.1 0.00112
971.2 0.00109
971.3 0.00106
971.4 0.00103
971.5 0.001
971.6 0.00097
971.7 0.00094
971.8 0.00091
971.9 0.00088
972 0.00085
972.1 0.00073
972.2 0.00061
972.3 0.00049
972.4 0.00037
972.5 0.00025
972.6 0.00013
972.7 1e-05
972.8 -0.00011
972.9 -0.00023
973 -0.00035
973.1 -0.000455
973.2 -0.00056
973.3 -0.000665
973.4 -0.00077
973.5 -0.000875
973.6 -0.00098
973.7 -0.001085
973.8 -0.00119
973.9 -0.001295
974 -0.0014
974.1 -0.00121
974.2 -0.00102
974.3 -0.00083
974.4 -0.00064
974.5 -0.00045
974.6 -0.00026
974.7 -7e-05
974.8 0.00012
974.9 0.00031
975 0.0005
975.1 0.000465
975.2 0.00043
975.3 0.000395
975.4 0.00036
975.5 0.000325
975.6 0.00029
975.7 0.000255
975.8 0.00022
975.9 0.000185
976 0.00015
976.1 0.0001
976.2 5e-05
976.3 0.0
976.4 -5e-05
976.5 -0.0001
976.6 -0.00015
976.7 -0.0002
976.8 -0.00025
976.9 -0.0003
977 -0.00035
977.1 -0.000135
977.2 8e-05
977.3 0.000295
977.4 0.00051
977.5 0.000725
977.6 0.00094
977.7 0.001155
977.8 0.00137
977.9 0.001585
978 0.0018
978.1 0.0016
978.2 0.0014
978.3 0.0012
978.4 0.001
978.5 0.0008
978.6 0.0006
978.7 0.0004
978.8 0.0002
978.9 2.77555756156e-19
979 -0.0002
979.1 -0.000145
979.2 -9e-05
979.3 -3.5e-05
979.4 2e-05
979.5 7.5e-05
979.6 0.00013
979.7 0.000185
979.8 0.00024
979.9 0.000295
980 0.00035
980.1 0.000295
980.2 0.00024
980.3 0.000185
980.4 0.00013
980.5 7.5e-05
980.6 2e-05
980.7 -3.5e-05
980.8 -9e-05
980.9 -0.000145
981 -0.0002
981.1 -0.000235
981.2 -0.00027
981.3 -0.000305
981.4 -0.00034
981.5 -0.000375
981.6 -0.00041
981.7 -0.000445
981.8 -0.00048
981.9 -0.000515
982 -0.00055
982.1 -0.000575
982.2 -0.0006
982.3 -0.000625
982.4 -0.00065
982.5 -0.000675
982.6 -0.0007
982.7 -0.000725
982.8 -0.00075
982.9 -0.000775
983 -0.0008
983.1 -0.00075
983.2 -0.0007
983.3 -0.00065
983.4 -0.0006
983.5 -0.00055
983.6 -0.0005
983.7 -0.00045
983.8 -0.0004
983.9 -0.00035
984 -0.0003
984.1 -0.00027
984.2 -0.00024
984.3 -0.00021
984.4 -0.00018
984.5 -0.00015
984.6 -0.00012
984.7 -9e-05
984.8 -6e-05
984.9 -3e-05
985 0.0
985.1 -0.000125
985.2 -0.00025
985.3 -0.000375
985.4 -0.0005
985.5 -0.000625
985.6 -0.00075
985.7 -0.000875
985.8 -0.001
985.9 -0.001125
986 -0.00125
986.1 -0.00117
986.2 -0.00109
986.3 -0.00101
986.4 -0.00093
986.5 -0.00085
986.6 -0.00077
986.7 -0.00069
986.8 -0.00061
986.9 -0.00053
987 -0.00045
987.1 -0.000485
987.2 -0.00052
987.3 -0.000555
987.4 -0.00059
987.5 -0.000625
987.6 -0.00066
987.7 -0.000695
987.8 -0.00073
987.9 -0.000765
988 -0.0008
988.1 -0.000745
988.2 -0.00069
988.3 -0.000635
988.4 -0.00058
988.5 -0.000525
988.6 -0.00047
988.7 -0.000415
988.8 -0.00036
988.9 -0.000305
989 -0.00025
989.1 -0.000305
989.2 -0.00036
989.3 -0.000415
989.4 -0.00047
989.5 -0.000525
989.6 -0.00058
989.7 -0.000635
989.8 -0.00069
989.9 -0.000745
990 -0.0008
990.1 -0.00067
990.2 -0.00054
990.3 -0.00041
990.4 -0.00028
990.5 -0.00015
990.6 -2e-05
990.7 0.00011
990.8 0.00024
990.9 0.00037
991 0.0005
991.1 0.000545
991.2 0.00059
991.3 0.000635
991.4 0.00068
991.5 0.000725
991.6 0.00077
991.7 0.000815
991.8 0.00086
991.9 0.000905
992 0.00095
992.1 0.00083
992.2 0.00071
992.3 0.00059
992.4 0.00047
992.5 0.00035
992.6 0.00023
992.7 0.00011
992.8 -1e-05
992.9 -0.00013
993 -0.00025
993.1 -0.00017
993.2 -9e-05
993.3 -1e-05
993.4 7e-05
993.5 0.00015
993.6 0.00023
993.7 0.00031
993.8 0.00039
993.9 0.00047
994 0.00055
994.1 0.000355
994.2 0.00016
994.3 -3.5e-05
994.4 -0.00023
994.5 -0.000425
994.6 -0.00062
994.7 -0.000815
994.8 -0.00101
994.9 -0.001205
995 -0.0014
995.1 -0.00139
995.2 -0.00138
995.3 -0.00137
995.4 -0.00136
995.5 -0.00135
995.6 -0.00134
995.7 -0.00133
995.8 -0.00132
995.9 -0.00131
996 -0.0013
996.1 -0.001175
996.2 -0.00105
996.3 -0.000925
996.4 -0.0008
996.5 -0.000675
996.6 -0.00055
996.7 -0.000425
996.8 -0.0003
996.9 -0.000175
997 -5e-05
997.1 2.5e-05
997.2 0.0001
997.3 0.000175
997.4 0.00025
997.5 0.000325
997.6 0.0004
997.7 0.000475
997.8 0.00055
997.9 0.000625
998 0.0007
998.1 0.000675
998.2 0.00065
998.3 0.000625
998.4 0.0006
998.5 0.000575
998.6 0.00055
998.7 0.000525
998.8 0.0005
998.9 0.000475
999 0.00045
999.1 0.00028
999.2 0.00011
999.3 -6e-05
999.4 -0.00023
999.5 -0.0004
999.6 -0.00057
999.7 -0.00074
999.8 -0.00091
999.9 -0.00108
1000 -0.00125
1000.1 -0.00117
1000.2 -0.00109
1000.3 -0.00101
1000.4 -0.00093
1000.5 -0.00085
1000.6 -0.00077
1000.7 -0.00069
1000.8 -0.00061
1000.9 -0.00053
1001 -0.00045
1001.1 -0.000485
1001.2 -0.00052
1001.3 -0.000555
1001.4 -0.00059
1001.5 -0.000625
1001.6 -0.00066
1001.7 -0.000695
1001.8 -0.00073
1001.9 -0.000765
1002 -0.0008
1002.1 -0.00077
1002.2 -0.00074
1002.3 -0.00071
1002.4 -0.00068
1002.5 -0.00065
1002.6 -0.00062
1002.7 -0.00059
1002.8 -0.00056
1002.9 -0.00053
1003 -0.0005
1003.1 -0.000435
1003.2 -0.00037
1003.3 -0.000305
1003.4 -0.00024
1003.5 -0.000175
1003.6 -0.00011
1003.7 -4.5e-05
1003.8 2e-05
1003.9 8.5e-05
1004 0.00015
1004.1 0.0001
1004.2 5e-05
1004.3 0.0
1004.4 -5e-05
1004.5 -0.0001
1004.6 -0.00015
1004.7 -0.0002
1004.8 -0.00025
1004.9 -0.0003
1005 -0.00035
1005.1 -0.000335
1005.2 -0.00032
1005.3 -0.000305
1005.4 -0.00029
1005.5 -0.000275
1005.6 -0.00026
1005.7 -0.000245
1005.8 -0.00023
1005.9 -0.000215
1006 -0.0002
1006.1 -0.00013
1006.2 -6e-05
1006.3 1e-05
1006.4 8e-05
1006.5 0.00015
1006.6 0.00022
1006.7 0.00029
1006.8 0.00036
1006.9 0.00043
1007 0.0005
1007.1 0.000535
1007.2 0.00057
1007.3 0.000605
1007.4 0.00064
1007.5 0.000675
1007.6 0.00071
1007.7 0.000745
1007.8 0.00078
1007.9 0.000815
1008 0.00085
1008.1 0.00073
1008.2 0.00061
1008.3 0.00049
1008.4 0.00037
1008.5 0.00025
1008.6 0.00013
1008.7 1e-05
1008.8 -0.00011
1008.9 -0.00023
1009 -0.00035
1009.1 -0.000335
1009.2 -0.00032
1009.3 -0.000305
1009.4 -0.00029
1009.5 -0.000275
1009.6 -0.00026
1009.7 -0.000245
1009.8 -0.00023
1009.9 -0.000215
1010 -0.0002
1010.1 -0.00035
1010.2 -0.0005
1010.3 -0.00065
1010.4 -0.0008
1010.5 -0.00095
1010.6 -0.0011
1010.7 -0.00125
1010.8 -0.0014
1010.9 -0.00155
1011 -0.0017
1011.1 -0.00154
1011.2 -0.00138
1011.3 -0.00122
1011.4 -0.00106
1011.5 -0.0009
1011.6 -0.00074
1011.7 -0.00058
1011.8 -0.00042
1011.9 -0.00026
1012 -0.0001
1012.1 -2e-05
1012.2 6e-05
1012.3 0.00014
1012.4 0.00022
1012.5 0.0003
1012.6 0.00038
1012.7 0.00046
1012.8 0.00054
1012.9 0.00062
1013 0.0007
1013.1 0.00068
1013.2 0.00066
1013.3 0.00064
1013.4 0.00062
1013.5 0.0006
1013.6 0.00058
1013.7 0.00056
1013.8 0.00054
1013.9 0.00052
1014 0.0005
1014.1 0.000425
1014.2 0.00035
1014.3 0.000275
1014.4 0.0002
1014.5 0.000125
1014.6 5e-05
1014.7 -2.5e-05
1014.8 -0.0001
1014.9 -0.000175
1015 -0.00025
1015.1 -0.000365
1015.2 -0.00048
1015.3 -0.000595
1015.4 -0.00071
1015.5 -0.000825
1015.6 -0.00094
1015.7 -0.001055
1015.8 -0.00117
1015.9 -0.001285
1016 -0.0014
1016.1 -0.001265
1016.2 -0.00113
1016.3 -0.000995
1016.4 -0.00086
1016.5 -0.000725
1016.6 -0.00059
1016.7 -0.000455
1016.8 -0.00032
1016.9 -0.000185
1017 -5e-05
1017.1 -0.000125
1017.2 -0.0002
1017.3 -0.000275
1017.4 -0.00035
1017.5 -0.000425
1017.6 -0.0005
1017.7 -0.000575
1017.8 -0.00065
1017.9 -0.000725
1018 -0.0008
1018.1 -0.00077
1018.2 -0.00074
1018.3 -0.00071
1018.4 -0.00068
1018.5 -0.00065
1018.6 -0.00062
1018.7 -0.00059
1018.8 -0.00056
1018.9 -0.00053
1019 -0.0005
1019.1 -0.000465
1019.2 -0.00043
1019.3 -0.000395
1019.4 -0.00036
1019.5 -0.000325
1019.6 -0.00029
1019.7 -0.000255
1019.8 -0.00022
1019.9 -0.000185
1020 -0.00015
1020.1 -1e-05
1020.2 0.00013
1020.3 0.00027
1020.4 0.00041
1020.5 0.00055
1020.6 0.00069
1020.7 0.00083
1020.8 0.00097
1020.9 0.00111
1021 0.00125
1021.1 0.001145
1021.2 0.00104
1021.3 0.000935
1021.4 0.00083
1021.5 0.000725
1021.6 0.00062
1021.7 0.000515
1021.8 0.00041
1021.9 0.000305
1022 0.0002
1022.1 0.000255
1022.2 0.00031
1022.3 0.000365
1022.4 0.00042
1022.5 0.000475
1022.6 0.00053
1022.7 0.000585
1022.8 0.00064
1022.9 0.000695
1023 0.00075
1023.1 0.000765
1023.2 0.00078
1023.3 0.000795
1023.4 0.00081
1023.5 0.000825
1023.6 0.00084
1023.7 0.000855
1023.8 0.00087
1023.9 0.000885
1024 0.0009
1024.1 0.000915
1024.2 0.00093
1024.3 0.000945
1024.4 0.00096
1024.5 0.000975
1024.6 0.00099
1024.7 0.001005
1024.8 0.00102
1024.9 0.001035
1025 0.00105
1025.1 0.00106
1025.2 0.00107
1025.3 0.00108
1025.4 0.00109
1025.5 0.0011
1025.6 0.00111
1025.7 0.00112
1025.8 0.00113
1025.9 0.00114
1026 0.00115
1026.1 0.00111
1026.2 0.00107
1026.3 0.00103
1026.4 0.00099
1026.5 0.00095
1026.6 0.00091
1026.7 0.00087
1026.8 0.00083
1026.9 0.00079
1027 0.00075
1027.1 0.00072
1027.2 0.00069
1027.3 0.00066
1027.4 0.00063
1027.5 0.0006
1027.6 0.00057
1027.7 0.00054
1027.8 0.00051
1027.9 0.00048
1028 0.00045
1028.1 0.00024
1028.2 3e-05
1028.3 -0.00018
1028.4 -0.00039
1028.5 -0.0006
1028.6 -0.00081
1028.7 -0.00102
1028.8 -0.00123
1028.9 -0.00144
1029 -0.00165
1029.1 -0.00158
1029.2 -0.00151
1029.3 -0.00144
1029.4 -0.00137
1029.5 -0.0013
1029.6 -0.00123
1029.7 -0.00116
1029.8 -0.00109
1029.9 -0.00102
1030 -0.00095
1030.1 -0.000825
1030.2 -0.0007
1030.3 -0.000575
1030.4 -0.00045
1030.5 -0.000325
1030.6 -0.0002
1030.7 -7.5e-05
1030.8 5e-05
1030.9 0.000175
1031 0.0003
1031.1 0.000235
1031.2 0.00017
1031.3 0.000105
1031.4 4e-05
1031.5 -2.5e-05
1031.6 -9e-05
1031.7 -0.000155
1031.8 -0.00022
1031.9 -0.000285
1032 -0.00035
1032.1 -0.00031
1032.2 -0.00027
1032.3 -0.00023
1032.4 -0.00019
1032.5 -0.00015
1032.6 -0.00011
1032.7 -7e-05
1032.8 -3e-05
1032.9 1e-05
1033 5e-05
1033.1 2.5e-05
1033.2 0.0
1033.3 -2.5e-05
1033.4 -5e-05
1033.5 -7.5e-05
1033.6 -0.0001
1033.7 -0.000125
1033.8 -0.00015
1033.9 -0.000175
1034 -0.0002
1034.1 -0.000195
1034.2 -0.00019
1034.3 -0.000185
1034.4 -0.00018
1034.5 -0.000175
1034.6 -0.00017
1034.7 -0.000165
1034.8 -0.00016
1034.9 -0.000155
1035 -0.00015
1035.1 -0.00022
1035.2 -0.00029
1035.3 -0.00036
1035.4 -0.00043
1035.5 -0.0005
1035.6 -0.00057
1035.7 -0.00064
1035.8 -0.00071
1035.9 -0.00078
1036 -0.00085
1036.1 -0.000775
1036.2 -0.0007
1036.3 -0.000625
1036.4 -0.00055
1036.5 -0.000475
1036.6 -0.0004
1036.7 -0.000325
1036.8 -0.00025
1036.9 -0.000175
1037 -0.0001
1037.1 -1e-05
1037.2 8e-05
1037.3 0.00017
1037.4 0.00026
1037.5 0.00035
1037.6 0.00044
1037.7 0.00053
1037.8 0.00062
1037.9 0.00071
1038 0.0008
1038.1 0.000695
1038.2 0.00059
1038.3 0.000485
1038.4 0.00038
1038.5 0.000275
1038.6 0.00017
1038.7 6.5e-05
1038.8 -4e-05
1038.9 -0.000145
1039 -0.00025
1039.1 -0.00024
1039.2 -0.00023
1039.3 -0.00022
1039.4 -0.00021
1039.5 -0.0002
1039.6 -0.00019
1039.7 -0.00018
1039.8 -0.00017
1039.9 -0.00016
1040 -0.00015
1040.1 -0.000205
1040.2 -0.00026
1040.3 -0.000315
1040.4 -0.00037
1040.5 -0.000425
1040.6 -0.00048
1040.7 -0.000535
1040.8 -0.00059
1040.9 -0.000645
1041 -0.0007
1041.1 -0.000655
1041.2 -0.00061
1041.3 -0.000565
1041.4 -0.00052
1041.5 -0.000475
1041.6 -0.00043
1041.7 -0.000385
1041.8 -0.00034
1041.9 -0.000295
1042 -0.00025
1042.1 -0.000305
1042.2 -0.00036
1042.3 -0.000415
1042.4 -0.00047
1042.5 -0.000525
1042.6 -0.00058
1042.7 -0.000635
1042.8 -0.00069
1042.9 -0.000745
1043 -0.0008
1043.1 -0.00091
1043.2 -0.00102
1043.3 -0.00113
1043.4 -0.00124
1043.5 -0.00135
1043.6 -0.00146
1043.7 -0.00157
1043.8 -0.00168
1043.9 -0.00179
1044 -0.0019
1044.1 -0.00148
1044.2 -0.00106
1044.3 -0.00064
1044.4 -0.00022
1044.5 0.0002
1044.6 0.00062
1044.7 0.00104
1044.8 0.00146
1044.9 0.00188
1045 0.0023
1045.1 0.002105
1045.2 0.00191
1045.3 0.001715
1045.4 0.00152
1045.5 0.001325
1045.6 0.00113
1045.7 0.000935
1045.8 0.00074
1045.9 0.000545
1046 0.00035
1046.1 0.000285
1046.2 0.00022
1046.3 0.000155
1046.4 9e-05
1046.5 2.5e-05
1046.6 -4e-05
1046.7 -0.000105
1046.8 -0.00017
1046.9 -0.000235
1047 -0.0003
1047.1 -0.000265
1047.2 -0.00023
1047.3 -0.000195
1047.4 -0.00016
1047.5 -0.000125
1047.6 -9e-05
1047.7 -5.5e-05
1047.8 -2e-05
1047.9 1.5e-05
1048 5e-05
1048.1 1e-05
1048.2 -3e-05
1048.3 -7e-05
1048.4 -0.00011
1048.5 -0.00015
1048.6 -0.00019
1048.7 -0.00023
1048.8 -0.00027
1048.9 -0.00031
1049 -0.00035
1049.1 -0.000105
1049.2 0.00014
1049.3 0.000385
1049.4 0.00063
1049.5 0.000875
1049.6 0.00112
1049.7 0.001365
1049.8 0.00161
1049.9 0.001855
1050 0.0021
1050.1 0.001855
1050.2 0.00161
1050.3 0.001365
1050.4 0.00112
1050.5 0.000875
1050.6 0.00063
1050.7 0.000385
1050.8 0.00014
1050.9 -0.000105
1051 -0.00035
1051.1 -0.00047
1051.2 -0.00059
1051.3 -0.00071
1051.4 -0.00083
1051.5 -0.00095
1051.6 -0.00107
1051.7 -0.00119
1051.8 -0.00131
1051.9 -0.00143
1052 -0.00155
1052.1 -0.001295
1052.2 -0.00104
1052.3 -0.000785
1052.4 -0.00053
1052.5 -0.000275
1052.6 -2e-05
1052.7 0.000235
1052.8 0.00049
1052.9 0.000745
1053 0.001
1053.1 0.00094
1053.2 0.00088
1053.3 0.00082
1053.4 0.00076
1053.5 0.0007
1053.6 0.00064
1053.7 0.00058
1053.8 0.00052
1053.9 0.00046
1054 0.0004
1054.1 0.000355
1054.2 0.00031
1054.3 0.000265
1054.4 0.00022
1054.5 0.000175
1054.6 0.00013
1054.7 8.5e-05
1054.8 4e-05
1054.9 -5e-06
1055 -5e-05
1055.1 -7e-05
1055.2 -9e-05
1055.3 -0.00011
1055.4 -0.00013
1055.5 -0.00015
1055.6 -0.00017
1055.7 -0.00019
1055.8 -0.00021
1055.9 -0.00023
1056 -0.00025
1056.1 -0.000275
1056.2 -0.0003
1056.3 -0.000325
1056.4 -0.00035
1056.5 -0.000375
1056.6 -0.0004
1056.7 -0.000425
1056.8 -0.00045
1056.9 -0.000475
1057 -0.0005
1057.1 -0.000485
1057.2 -0.00047
1057.3 -0.000455
1057.4 -0.00044
1057.5 -0.000425
1057.6 -0.00041
1057.7 -0.000395
1057.8 -0.00038
1057.9 -0.000365
1058 -0.00035
1058.1 -0.00037
1058.2 -0.00039
1058.3 -0.00041
1058.4 -0.00043
1058.5 -0.00045
1058.6 -0.00047
1058.7 -0.00049
1058.8 -0.00051
1058.9 -0.00053
1059 -0.00055
1059.1 -0.000475
1059.2 -0.0004
1059.3 -0.000325
1059.4 -0.00025
1059.5 -0.000175
1059.6 -0.0001
1059.7 -2.5e-05
1059.8 5e-05
1059.9 0.000125
1060 0.0002
1060.1 0.000145
1060.2 9e-05
1060.3 3.5e-05
1060.4 -2e-05
1060.5 -7.5e-05
1060.6 -0.00013
1060.7 -0.000185
1060.8 -0.00024
1060.9 -0.000295
1061 -0.00035
1061.1 -0.000315
1061.2 -0.00028
1061.3 -0.000245
1061.4 -0.00021
1061.5 -0.000175
1061.6 -0.00014
1061.7 -0.000105
1061.8 -7e-05
1061.9 -3.5e-05
1062 0.0
1062.1 -9.5e-05
1062.2 -0.00019
1062.3 -0.000285
1062.4 -0.00038
1062.5 -0.000475
1062.6 -0.00057
1062.7 -0.000665
1062.8 -0.00076
1062.9 -0.000855
1063 -0.00095
1063.1 -0.00085
1063.2 -0.00075
1063.3 -0.00065
1063.4 -0.00055
1063.5 -0.00045
1063.6 -0.00035
1063.7 -0.00025
1063.8 -0.00015
1063.9 -5e-05
1064 5e-05
1064.1 6.5e-05
1064.2 8e-05
1064.3 9.5e-05
1064.4 0.00011
1064.5 0.000125
1064.6 0.00014
1064.7 0.000155
1064.8 0.00017
1064.9 0.000185
1065 0.0002
1065.1 0.000235
1065.2 0.00027
1065.3 0.000305
1065.4 0.00034
1065.5 0.000375
1065.6 0.00041
1065.7 0.000445
1065.8 0.00048
1065.9 0.000515
1066 0.00055
1066.1 0.000425
1066.2 0.0003
1066.3 0.000175
1066.4 5e-05
1066.5 -7.5e-05
1066.6 -0.0002
1066.7 -0.000325
1066.8 -0.00045
1066.9 -0.000575
1067 -0.0007
1067.1 -0.000675
1067.2 -0.00065
1067.3 -0.000625
1067.4 -0.0006
1067.5 -0.000575
1067.6 -0.00055
1067.7 -0.000525
1067.8 -0.0005
1067.9 -0.000475
1068 -0.00045
1068.1 -0.000365
1068.2 -0.00028
1068.3 -0.000195
1068.4 -0.00011
1068.5 -2.5e-05
1068.6 6e-05
1068.7 0.000145
1068.8 0.00023
1068.9 0.000315
1069 0.0004
1069.1 0.00035
1069.2 0.0003
1069.3 0.00025
1069.4 0.0002
1069.5 0.00015
1069.6 0.0001
1069.7 5e-05
1069.8 0.0
1069.9 -5e-05
1070 -0.0001
1070.1 -0.000145
1070.2 -0.00019
1070.3 -0.000235
1070.4 -0.00028
1070.5 -0.000325
1070.6 -0.00037
1070.7 -0.000415
1070.8 -0.00046
1070.9 -0.000505
1071 -0.00055
1071.1 -0.000505
1071.2 -0.00046
1071.3 -0.000415
1071.4 -0.00037
1071.5 -0.000325
1071.6 -0.00028
1071.7 -0.000235
1071.8 -0.00019
1071.9 -0.000145
1072 -0.0001
1072.1 -0.000125
1072.2 -0.00015
1072.3 -0.000175
1072.4 -0.0002
1072.5 -0.000225
1072.6 -0.00025
1072.7 -0.000275
1072.8 -0.0003
1072.9 -0.000325
1073 -0.00035
1073.1 -0.000335
1073.2 -0.00032
1073.3 -0.000305
1073.4 -0.00029
1073.5 -0.000275
1073.6 -0.00026
1073.7 -0.000245
1073.8 -0.00023
1073.9 -0.000215
1074 -0.0002
1074.1 -0.00019
1074.2 -0.00018
1074.3 -0.00017
1074.4 -0.00016
1074.5 -0.00015
1074.6 -0.00014
1074.7 -0.00013
1074.8 -0.00012
1074.9 -0.00011
1075 -0.0001
1075.1 -0.00013
1075.2 -0.00016
1075.3 -0.00019
1075.4 -0.00022
1075.5 -0.00025
1075.6 -0.00028
1075.7 -0.00031
1075.8 -0.00034
1075.9 -0.00037
1076 -0.0004
1076.1 -0.000385
1076.2 -0.00037
1076.3 -0.000355
1076.4 -0.00034
1076.5 -0.000325
1076.6 -0.00031
1076.7 -0.000295
1076.8 -0.00028
1076.9 -0.000265
1077 -0.00025
1077.1 -0.00025
1077.2 -0.00025
1077.3 -0.00025
1077.4 -0.00025
1077.5 -0.00025
1077.6 -0.00025
1077.7 -0.00025
1077.8 -0.00025
1077.9 -0.00025
1078 -0.00025
1078.1 -0.00026
1078.2 -0.00027
1078.3 -0.00028
1078.4 -0.00029
1078.5 -0.0003
1078.6 -0.00031
1078.7 -0.00032
1078.8 -0.00033
1078.9 -0.00034
1079 -0.00035
1079.1 -0.000385
1079.2 -0.00042
1079.3 -0.000455
1079.4 -0.00049
1079.5 -0.000525
1079.6 -0.00056
1079.7 -0.000595
1079.8 -0.00063
1079.9 -0.000665
1080 -0.0007
1080.1 -0.000635
1080.2 -0.00057
1080.3 -0.000505
1080.4 -0.00044
1080.5 -0.000375
1080.6 -0.00031
1080.7 -0.000245
1080.8 -0.00018
1080.9 -0.000115
1081 -5e-05
1081.1 -0.000115
1081.2 -0.00018
1081.3 -0.000245
1081.4 -0.00031
1081.5 -0.000375
1081.6 -0.00044
1081.7 -0.000505
1081.8 -0.00057
1081.9 -0.000635
1082 -0.0007
1082.1 -0.000675
1082.2 -0.00065
1082.3 -0.000625
1082.4 -0.0006
1082.5 -0.000575
1082.6 -0.00055
1082.7 -0.000525
1082.8 -0.0005
1082.9 -0.000475
1083 -0.00045
1083.1 -0.000405
1083.2 -0.00036
1083.3 -0.000315
1083.4 -0.00027
1083.5 -0.000225
1083.6 -0.00018
1083.7 -0.000135
1083.8 -9e-05
1083.9 -4.5e-05
1084 0.0
1084.1 0.000175
1084.2 0.00035
1084.3 0.000525
1084.4 0.0007
1084.5 0.000875
1084.6 0.00105
1084.7 0.001225
1084.8 0.0014
1084.9 0.001575
1085 0.00175
1085.1 0.001635
1085.2 0.00152
1085.3 0.001405
1085.4 0.00129
1085.5 0.001175
1085.6 0.00106
1085.7 0.000945
1085.8 0.00083
1085.9 0.000715
1086 0.0006
1086.1 0.00052
1086.2 0.00044
1086.3 0.00036
1086.4 0.00028
1086.5 0.0002
1086.6 0.00012
1086.7 4e-05
1086.8 -4e-05
1086.9 -0.00012
1087 -0.0002
1087.1 -0.000235
1087.2 -0.00027
1087.3 -0.000305
1087.4 -0.00034
1087.5 -0.000375
1087.6 -0.00041
1087.7 -0.000445
1087.8 -0.00048
1087.9 -0.000515
1088 -0.00055
1088.1 -0.000315
1088.2 -8e-05
1088.3 0.000155
1088.4 0.00039
1088.5 0.000625
1088.6 0.00086
1088.7 0.001095
1088.8 0.00133
1088.9 0.001565
1089 0.0018
1089.1 0.00172
1089.2 0.00164
1089.3 0.00156
1089.4 0.00148
1089.5 0.0014
1089.6 0.00132
1089.7 0.00124
1089.8 0.00116
1089.9 0.00108
1090 0.001
1090.1 0.000895
1090.2 0.00079
1090.3 0.000685
1090.4 0.00058
1090.5 0.000475
1090.6 0.00037
1090.7 0.000265
1090.8 0.00016
1090.9 5.5e-05
1091 -5e-05
1091.1 -7.5e-05
1091.2 -0.0001
1091.3 -0.000125
1091.4 -0.00015
1091.5 -0.000175
1091.6 -0.0002
1091.7 -0.000225
1091.8 -0.00025
1091.9 -0.000275
1092 -0.0003
1092.1 -0.000275
1092.2 -0.00025
1092.3 -0.000225
1092.4 -0.0002
1092.5 -0.000175
1092.6 -0.00015
1092.7 -0.000125
1092.8 -0.0001
1092.9 -7.5e-05
1093 -5e-05
1093.1 -2e-05
1093.2 1e-05
1093.3 4e-05
1093.4 7e-05
1093.5 0.0001
1093.6 0.00013
1093.7 0.00016
1093.8 0.00019
1093.9 0.00022
1094 0.00025
1094.1 0.00026
1094.2 0.00027
1094.3 0.00028
1094.4 0.00029
1094.5 0.0003
1094.6 0.00031
1094.7 0.00032
1094.8 0.00033
1094.9 0.00034
1095 0.00035
1095.1 0.00033
1095.2 0.00031
1095.3 0.00029
1095.4 0.00027
1095.5 0.00025
1095.6 0.00023
1095.7 0.00021
1095.8 0.00019
1095.9 0.00017
1096 0.00015
1096.1 0.00014
1096.2 0.00013
1096.3 0.00012
1096.4 0.00011
1096.5 0.0001
1096.6 9e-05
1096.7 8e-05
1096.8 7e-05
1096.9 6e-05
1097 5e-05
1097.1 4.5e-05
1097.2 4e-05
1097.3 3.5e-05
1097.4 3e-05
1097.5 2.5e-05
1097.6 2e-05
1097.7 1.5e-05
1097.8 1e-05
1097.9 5e-06
1098 0.0
1098.1 -3.5e-05
1098.2 -7e-05
1098.3 -0.000105
1098.4 -0.00014
1098.5 -0.000175
1098.6 -0.00021
1098.7 -0.000245
1098.8 -0.00028
1098.9 -0.000315
1099 -0.00035
1099.1 -0.00026
1099.2 -0.00017
1099.3 -8e-05
1099.4 1e-05
1099.5 0.0001
1099.6 0.00019
1099.7 0.00028
1099.8 0.00037
1099.9 0.00046
1100 0.00055
1100.1 0.000445
1100.2 0.00034
1100.3 0.000235
1100.4 0.00013
1100.5 2.5e-05
1100.6 -8e-05
1100.7 -0.000185
1100.8 -0.00029
1100.9 -0.000395
1101 -0.0005
1101.1 -0.00047
1101.2 -0.00044
1101.3 -0.00041
1101.4 -0.00038
1101.5 -0.00035
1101.6 -0.00032
1101.7 -0.00029
1101.8 -0.00026
1101.9 -0.00023
1102 -0.0002
1102.1 -0.000165
1102.2 -0.00013
1102.3 -9.5e-05
1102.4 -6e-05
1102.5 -2.5e-05
1102.6 1e-05
1102.7 4.5e-05
1102.8 8e-05
1102.9 0.000115
1103 0.00015
1103.1 0.00012
1103.2 9e-05
1103.3 6e-05
1103.4 3e-05
1103.5 0.0
1103.6 -3e-05
1103.7 -6e-05
1103.8 -9e-05
1103.9 -0.00012
1104 -0.00015
1104.1 -0.000135
1104.2 -0.00012
1104.3 -0.000105
1104.4 -9e-05
1104.5 -7.5e-05
1104.6 -6e-05
1104.7 -4.5e-05
1104.8 -3e-05
1104.9 -1.5e-05
1105 0.0
1105.1 0.000135
1105.2 0.00027
1105.3 0.000405
1105.4 0.00054
1105.5 0.000675
1105.6 0.00081
1105.7 0.000945
1105.8 0.00108
1105.9 0.001215
1106 0.00135
1106.1 0.00123
1106.2 0.00111
1106.3 0.00099
1106.4 0.00087
1106.5 0.00075
1106.6 0.00063
1106.7 0.00051
1106.8 0.00039
1106.9 0.00027
1107 0.00015
1107.1 0.000165
1107.2 0.00018
1107.3 0.000195
1107.4 0.00021
1107.5 0.000225
1107.6 0.00024
1107.7 0.000255
1107.8 0.00027
1107.9 0.000285
1108 0.0003
1108.1 0.00022
1108.2 0.00014
1108.3 6e-05
1108.4 -2e-05
1108.5 -0.0001
1108.6 -0.00018
1108.7 -0.00026
1108.8 -0.00034
1108.9 -0.00042
1109 -0.0005
1109.1 -0.00045
1109.2 -0.0004
1109.3 -0.00035
1109.4 -0.0003
1109.5 -0.00025
1109.6 -0.0002
1109.7 -0.00015
1109.8 -0.0001
1109.9 -5e-05
1110 0.0
1110.1 5.5e-05
1110.2 0.00011
1110.3 0.000165
1110.4 0.00022
1110.5 0.000275
1110.6 0.00033
1110.7 0.000385
1110.8 0.00044
1110.9 0.000495
1111 0.00055
1111.1 0.000415
1111.2 0.00028
1111.3 0.000145
1111.4 1e-05
1111.5 -0.000125
1111.6 -0.00026
1111.7 -0.000395
1111.8 -0.00053
1111.9 -0.000665
1112 -0.0008
1112.1 -0.000595
1112.2 -0.00039
1112.3 -0.000185
1112.4 2e-05
1112.5 0.000225
1112.6 0.00043
1112.7 0.000635
1112.8 0.00084
1112.9 0.001045
1113 0.00125
1113.1 0.00114
1113.2 0.00103
1113.3 0.00092
1113.4 0.00081
1113.5 0.0007
1113.6 0.00059
1113.7 0.00048
1113.8 0.00037
1113.9 0.00026
1114 0.00015
1114.1 0.00015
1114.2 0.00015
1114.3 0.00015
1114.4 0.00015
1114.5 0.00015
1114.6 0.00015
1114.7 0.00015
1114.8 0.00015
1114.9 0.00015
1115 0.00015
1115.1 0.00021
1115.2 0.00027
1115.3 0.00033
1115.4 0.00039
1115.5 0.00045
1115.6 0.00051
1115.7 0.00057
1115.8 0.00063
1115.9 0.00069
1116 0.00075
1116.1 0.00079
1116.2 0.00083
1116.3 0.00087
1116.4 0.00091
1116.5 0.00095
1116.6 0.00099
1116.7 0.00103
1116.8 0.00107
1116.9 0.00111
1117 0.00115
1117.1 0.00103
1117.2 0.00091
1117.3 0.00079
1117.4 0.00067
1117.5 0.00055
1117.6 0.00043
1117.7 0.00031
1117.8 0.00019
1117.9 7e-05
1118 -5e-05
1118.1 -0.000165
1118.2 -0.00028
1118.3 -0.000395
1118.4 -0.00051
1118.5 -0.000625
1118.6 -0.00074
1118.7 -0.000855
1118.8 -0.00097
1118.9 -0.001085
1119 -0.0012
1119.1 -0.001045
1119.2 -0.00089
1119.3 -0.000735
1119.4 -0.00058
1119.5 -0.000425
1119.6 -0.00027
1119.7 -0.000115
1119.8 4e-05
1119.9 0.000195
1120 0.00035
1120.1 0.000215
1120.2 8e-05
1120.3 -5.5e-05
1120.4 -0.00019
1120.5 -0.000325
1120.6 -0.00046
1120.7 -0.000595
1120.8 -0.00073
1120.9 -0.000865
1121 -0.001
1121.1 -0.000905
1121.2 -0.00081
1121.3 -0.000715
1121.4 -0.00062
1121.5 -0.000525
1121.6 -0.00043
1121.7 -0.000335
1121.8 -0.00024
1121.9 -0.000145
1122 -5e-05
1122.1 -0.00016
1122.2 -0.00027
1122.3 -0.00038
1122.4 -0.00049
1122.5 -0.0006
1122.6 -0.00071
1122.7 -0.00082
1122.8 -0.00093
1122.9 -0.00104
1123 -0.00115
1123.1 -0.001005
1123.2 -0.00086
1123.3 -0.000715
1123.4 -0.00057
1123.5 -0.000425
1123.6 -0.00028
1123.7 -0.000135
1123.8 1e-05
1123.9 0.000155
1124 0.0003
1124.1 0.00032
1124.2 0.00034
1124.3 0.00036
1124.4 0.00038
1124.5 0.0004
1124.6 0.00042
1124.7 0.00044
1124.8 0.00046
1124.9 0.00048
1125 0.0005
1125.1 0.00046
1125.2 0.00042
1125.3 0.00038
1125.4 0.00034
1125.5 0.0003
1125.6 0.00026
1125.7 0.00022
1125.8 0.00018
1125.9 0.00014
1126 0.0001
1126.1 4.5e-05
1126.2 -1e-05
1126.3 -6.5e-05
1126.4 -0.00012
1126.5 -0.000175
1126.6 -0.00023
1126.7 -0.000285
1126.8 -0.00034
1126.9 -0.000395
1127 -0.00045
1127.1 -0.00041
1127.2 -0.00037
1127.3 -0.00033
1127.4 -0.00029
1127.5 -0.00025
1127.6 -0.00021
1127.7 -0.00017
1127.8 -0.00013
1127.9 -9e-05
1128 -5e-05
1128.1 -2.5e-05
1128.2 0.0
1128.3 2.5e-05
1128.4 5e-05
1128.5 7.5e-05
1128.6 0.0001
1128.7 0.000125
1128.8 0.00015
1128.9 0.000175
1129 0.0002
1129.1 0.000335
1129.2 0.00047
1129.3 0.000605
1129.4 0.00074
1129.5 0.000875
1129.6 0.00101
1129.7 0.001145
1129.8 0.00128
1129.9 0.001415
1130 0.00155
1130.1 0.001425
1130.2 0.0013
1130.3 0.001175
1130.4 0.00105
1130.5 0.000925
1130.6 0.0008
1130.7 0.000675
1130.8 0.00055
1130.9 0.000425
1131 0.0003
1131.1 0.000175
1131.2 5e-05
1131.3 -7.5e-05
1131.4 -0.0002
1131.5 -0.000325
1131.6 -0.00045
1131.7 -0.000575
1131.8 -0.0007
1131.9 -0.000825
1132 -0.00095
1132.1 -0.00084
1132.2 -0.00073
1132.3 -0.00062
1132.4 -0.00051
1132.5 -0.0004
1132.6 -0.00029
1132.7 -0.00018
1132.8 -7e-05
1132.9 4e-05
1133 0.00015
1133.1 0.000445
1133.2 0.00074
1133.3 0.001035
1133.4 0.00133
1133.5 0.001625
1133.6 0.00192
1133.7 0.002215
1133.8 0.00251
1133.9 0.002805
1134 0.0031
1134.1 0.002685
1134.2 0.00227
1134.3 0.001855
1134.4 0.00144
1134.5 0.001025
1134.6 0.00061
1134.7 0.000195
1134.8 -0.00022
1134.9 -0.000635
1135 -0.00105
1135.1 -0.001045
1135.2 -0.00104
1135.3 -0.001035
1135.4 -0.00103
1135.5 -0.001025
1135.6 -0.00102
1135.7 -0.001015
1135.8 -0.00101
1135.9 -0.001005
1136 -0.001
1136.1 -0.00075
1136.2 -0.0005
1136.3 -0.00025
1136.4 0.0
1136.5 0.00025
1136.6 0.0005
1136.7 0.00075
1136.8 0.001
1136.9 0.00125
1137 0.0015
1137.1 0.00128
1137.2 0.00106
1137.3 0.00084
1137.4 0.00062
1137.5 0.0004
1137.6 0.00018
1137.7 -4e-05
1137.8 -0.00026
1137.9 -0.00048
1138 -0.0007
1138.1 -0.000685
1138.2 -0.00067
1138.3 -0.000655
1138.4 -0.00064
1138.5 -0.000625
1138.6 -0.00061
1138.7 -0.000595
1138.8 -0.00058
1138.9 -0.000565
1139 -0.00055
1139.1 -0.00052
1139.2 -0.00049
1139.3 -0.00046
1139.4 -0.00043
1139.5 -0.0004
1139.6 -0.00037
1139.7 -0.00034
1139.8 -0.00031
1139.9 -0.00028
1140 -0.00025
1140.1 -0.0002
1140.2 -0.00015
1140.3 -0.0001
1140.4 -5e-05
1140.5 0.0
1140.6 5e-05
1140.7 0.0001
1140.8 0.00015
1140.9 0.0002
1141 0.00025
1141.1 0.000205
1141.2 0.00016
1141.3 0.000115
1141.4 7e-05
1141.5 2.5e-05
1141.6 -2e-05
1141.7 -6.5e-05
1141.8 -0.00011
1141.9 -0.000155
1142 -0.0002
1142.1 -0.000295
1142.2 -0.00039
1142.3 -0.000485
1142.4 -0.00058
1142.5 -0.000675
1142.6 -0.00077
1142.7 -0.000865
1142.8 -0.00096
1142.9 -0.001055
1143 -0.00115
1143.1 -0.00111
1143.2 -0.00107
1143.3 -0.00103
1143.4 -0.00099
1143.5 -0.00095
1143.6 -0.00091
1143.7 -0.00087
1143.8 -0.00083
1143.9 -0.00079
1144 -0.00075
1144.1 -0.000775
1144.2 -0.0008
1144.3 -0.000825
1144.4 -0.00085
1144.5 -0.000875
1144.6 -0.0009
1144.7 -0.000925
1144.8 -0.00095
1144.9 -0.000975
1145 -0.001
1145.1 -0.00089
1145.2 -0.00078
1145.3 -0.00067
1145.4 -0.00056
1145.5 -0.00045
1145.6 -0.00034
1145.7 -0.00023
1145.8 -0.00012
1145.9 -1e-05
1146 0.0001
1146.1 -1e-05
1146.2 -0.00012
1146.3 -0.00023
1146.4 -0.00034
1146.5 -0.00045
1146.6 -0.00056
1146.7 -0.00067
1146.8 -0.00078
1146.9 -0.00089
1147 -0.001
1147.1 -0.000825
1147.2 -0.00065
1147.3 -0.000475
1147.4 -0.0003
1147.5 -0.000125
1147.6 5e-05
1147.7 0.000225
1147.8 0.0004
1147.9 0.000575
1148 0.00075
1148.1 0.000645
1148.2 0.00054
1148.3 0.000435
1148.4 0.00033
1148.5 0.000225
1148.6 0.00012
1148.7 1.5e-05
1148.8 -9e-05
1148.9 -0.000195
1149 -0.0003
1149.1 -0.00029
1149.2 -0.00028
1149.3 -0.00027
1149.4 -0.00026
1149.5 -0.00025
1149.6 -0.00024
1149.7 -0.00023
1149.8 -0.00022
1149.9 -0.00021
1150 -0.0002
1150.1 -8.5e-05
1150.2 3e-05
1150.3 0.000145
1150.4 0.00026
1150.5 0.000375
1150.6 0.00049
1150.7 0.000605
1150.8 0.00072
1150.9 0.000835
1151 0.00095
1151.1 0.000855
1151.2 0.00076
1151.3 0.000665
1151.4 0.00057
1151.5 0.000475
1151.6 0.00038
1151.7 0.000285
1151.8 0.00019
1151.9 9.5e-05
1152 0.0
1152.1 -2.5e-05
1152.2 -5e-05
1152.3 -7.5e-05
1152.4 -0.0001
1152.5 -0.000125
1152.6 -0.00015
1152.7 -0.000175
1152.8 -0.0002
1152.9 -0.000225
1153 -0.00025
1153.1 -0.000135
1153.2 -2e-05
1153.3 9.5e-05
1153.4 0.00021
1153.5 0.000325
1153.6 0.00044
1153.7 0.000555
1153.8 0.00067
1153.9 0.000785
1154 0.0009
1154.1 0.00086
1154.2 0.00082
1154.3 0.00078
1154.4 0.00074
1154.5 0.0007
1154.6 0.00066
1154.7 0.00062
1154.8 0.00058
1154.9 0.00054
1155 0.0005
1155.1 0.000605
1155.2 0.00071
1155.3 0.000815
1155.4 0.00092
1155.5 0.001025
1155.6 0.00113
1155.7 0.001235
1155.8 0.00134
1155.9 0.001445
1156 0.00155
1156.1 0.0015
1156.2 0.00145
1156.3 0.0014
1156.4 0.00135
1156.5 0.0013
1156.6 0.00125
1156.7 0.0012
1156.8 0.00115
1156.9 0.0011
1157 0.00105
1157.1 0.001035
1157.2 0.00102
1157.3 0.001005
1157.4 0.00099
1157.5 0.000975
1157.6 0.00096
1157.7 0.000945
1157.8 0.00093
1157.9 0.000915
1158 0.0009
1158.1 0.000805
1158.2 0.00071
1158.3 0.000615
1158.4 0.00052
1158.5 0.000425
1158.6 0.00033
1158.7 0.000235
1158.8 0.00014
1158.9 4.5e-05
1159 -5e-05
1159.1 -5.5e-05
1159.2 -6e-05
1159.3 -6.5e-05
1159.4 -7e-05
1159.5 -7.5e-05
1159.6 -8e-05
1159.7 -8.5e-05
1159.8 -9e-05
1159.9 -9.5e-05
1160 -0.0001
1160.1 -8e-05
1160.2 -6e-05
1160.3 -4e-05
1160.4 -2e-05
1160.5 0.0
1160.6 2e-05
1160.7 4e-05
1160.8 6e-05
1160.9 8e-05
1161 0.0001
1161.1 1e-05
1161.2 -8e-05
1161.3 -0.00017
1161.4 -0.00026
1161.5 -0.00035
1161.6 -0.00044
1161.7 -0.00053
1161.8 -0.00062
1161.9 -0.00071
1162 -0.0008
1162.1 -0.00043
1162.2 -6e-05
1162.3 0.00031
1162.4 0.00068
1162.5 0.00105
1162.6 0.00142
1162.7 0.00179
1162.8 0.00216
1162.9 0.00253
1163 0.0029
1163.1 0.00263
1163.2 0.00236
1163.3 0.00209
1163.4 0.00182
1163.5 0.00155
1163.6 0.00128
1163.7 0.00101
1163.8 0.00074
1163.9 0.00047
1164 0.0002
1164.1 0.00016
1164.2 0.00012
1164.3 8e-05
1164.4 4e-05
1164.5 0.0
1164.6 -4e-05
1164.7 -8e-05
1164.8 -0.00012
1164.9 -0.00016
1165 -0.0002
1165.1 -0.00015
1165.2 -0.0001
1165.3 -5e-05
1165.4 0.0
1165.5 5e-05
1165.6 0.0001
1165.7 0.00015
1165.8 0.0002
1165.9 0.00025
1166 0.0003
1166.1 0.000215
1166.2 0.00013
1166.3 4.5e-05
1166.4 -4e-05
1166.5 -0.000125
1166.6 -0.00021
1166.7 -0.000295
1166.8 -0.00038
1166.9 -0.000465
1167 -0.00055
1167.1 -0.00054
1167.2 -0.00053
1167.3 -0.00052
1167.4 -0.00051
1167.5 -0.0005
1167.6 -0.00049
1167.7 -0.00048
1167.8 -0.00047
1167.9 -0.00046
1168 -0.00045
1168.1 -0.000505
1168.2 -0.00056
1168.3 -0.000615
1168.4 -0.00067
1168.5 -0.000725
1168.6 -0.00078
1168.7 -0.000835
1168.8 -0.00089
1168.9 -0.000945
1169 -0.001
1169.1 -0.000805
1169.2 -0.00061
1169.3 -0.000415
1169.4 -0.00022
1169.5 -2.5e-05
1169.6 0.00017
1169.7 0.000365
1169.8 0.00056
1169.9 0.000755
1170 0.00095
1170.1 0.000855
1170.2 0.00076
1170.3 0.000665
1170.4 0.00057
1170.5 0.000475
1170.6 0.00038
1170.7 0.000285
1170.8 0.00019
1170.9 9.5e-05
1171 0.0
1171.1 -2.5e-05
1171.2 -5e-05
1171.3 -7.5e-05
1171.4 -0.0001
1171.5 -0.000125
1171.6 -0.00015
1171.7 -0.000175
1171.8 -0.0002
1171.9 -0.000225
1172 -0.00025
1172.1 -0.00021
1172.2 -0.00017
1172.3 -0.00013
1172.4 -9e-05
1172.5 -5e-05
1172.6 -1e-05
1172.7 3e-05
1172.8 7e-05
1172.9 0.00011
1173 0.00015
1173.1 4e-05
1173.2 -7e-05
1173.3 -0.00018
1173.4 -0.00029
1173.5 -0.0004
1173.6 -0.00051
1173.7 -0.00062
1173.8 -0.00073
1173.9 -0.00084
1174 -0.00095
1174.1 -0.000885
1174.2 -0.00082
1174.3 -0.000755
1174.4 -0.00069
1174.5 -0.000625
1174.6 -0.00056
1174.7 -0.000495
1174.8 -0.00043
1174.9 -0.000365
1175 -0.0003
1175.1 -0.000295
1175.2 -0.00029
1175.3 -0.000285
1175.4 -0.00028
1175.5 -0.000275
1175.6 -0.00027
1175.7 -0.000265
1175.8 -0.00026
1175.9 -0.000255
1176 -0.00025
1176.1 -0.00027
1176.2 -0.00029
1176.3 -0.00031
1176.4 -0.00033
1176.5 -0.00035
1176.6 -0.00037
1176.7 -0.00039
1176.8 -0.00041
1176.9 -0.00043
1177 -0.00045
1177.1 -0.000425
1177.2 -0.0004
1177.3 -0.000375
1177.4 -0.00035
1177.5 -0.000325
1177.6 -0.0003
1177.7 -0.000275
1177.8 -0.00025
1177.9 -0.000225
1178 -0.0002
1178.1 -0.00022
1178.2 -0.00024
1178.3 -0.00026
1178.4 -0.00028
1178.5 -0.0003
1178.6 -0.00032
1178.7 -0.00034
1178.8 -0.00036
1178.9 -0.00038
1179 -0.0004
1179.1 -0.00042
1179.2 -0.00044
1179.3 -0.00046
1179.4 -0.00048
1179.5 -0.0005
1179.6 -0.00052
1179.7 -0.00054
1179.8 -0.00056
1179.9 -0.00058
1180 -0.0006
1180.1 -0.000525
1180.2 -0.00045
1180.3 -0.000375
1180.4 -0.0003
1180.5 -0.000225
1180.6 -0.00015
1180.7 -7.5e-05
1180.8 0.0
1180.9 7.5e-05
1181 0.00015
1181.1 7e-05
1181.2 -1e-05
1181.3 -9e-05
1181.4 -0.00017
1181.5 -0.00025
1181.6 -0.00033
1181.7 -0.00041
1181.8 -0.00049
1181.9 -0.00057
1182 -0.00065
1182.1 -0.00049
1182.2 -0.00033
1182.3 -0.00017
1182.4 -1e-05
1182.5 0.00015
1182.6 0.00031
1182.7 0.00047
1182.8 0.00063
1182.9 0.00079
1183 0.00095
1183.1 0.00086
1183.2 0.00077
1183.3 0.00068
1183.4 0.00059
1183.5 0.0005
1183.6 0.00041
1183.7 0.00032
1183.8 0.00023
1183.9 0.00014
1184 5e-05
1184.1 0.00011
1184.2 0.00017
1184.3 0.00023
1184.4 0.00029
1184.5 0.00035
1184.6 0.00041
1184.7 0.00047
1184.8 0.00053
1184.9 0.00059
1185 0.00065
1185.1 0.000525
1185.2 0.0004
1185.3 0.000275
1185.4 0.00015
1185.5 2.5e-05
1185.6 -0.0001
1185.7 -0.000225
1185.8 -0.00035
1185.9 -0.000475
1186 -0.0006
1186.1 -0.000565
1186.2 -0.00053
1186.3 -0.000495
1186.4 -0.00046
1186.5 -0.000425
1186.6 -0.00039
1186.7 -0.000355
1186.8 -0.00032
1186.9 -0.000285
1187 -0.00025
1187.1 -0.000365
1187.2 -0.00048
1187.3 -0.000595
1187.4 -0.00071
1187.5 -0.000825
1187.6 -0.00094
1187.7 -0.001055
1187.8 -0.00117
1187.9 -0.001285
1188 -0.0014
1188.1 -0.001415
1188.2 -0.00143
1188.3 -0.001445
1188.4 -0.00146
1188.5 -0.001475
1188.6 -0.00149
1188.7 -0.001505
1188.8 -0.00152
1188.9 -0.001535
1189 -0.00155
1189.1 -0.001475
1189.2 -0.0014
1189.3 -0.001325
1189.4 -0.00125
1189.5 -0.001175
1189.6 -0.0011
1189.7 -0.001025
1189.8 -0.00095
1189.9 -0.000875
1190 -0.0008
1190.1 -0.00072
1190.2 -0.00064
1190.3 -0.00056
1190.4 -0.00048
1190.5 -0.0004
1190.6 -0.00032
1190.7 -0.00024
1190.8 -0.00016
1190.9 -8e-05
1191 0.0
1191.1 1.5e-05
1191.2 3e-05
1191.3 4.5e-05
1191.4 6e-05
1191.5 7.5e-05
1191.6 9e-05
1191.7 0.000105
1191.8 0.00012
1191.9 0.000135
1192 0.00015
1192.1 0.00012
1192.2 9e-05
1192.3 6e-05
1192.4 3e-05
1192.5 0.0
1192.6 -3e-05
1192.7 -6e-05
1192.8 -9e-05
1192.9 -0.00012
1193 -0.00015
1193.1 -6e-05
1193.2 3e-05
1193.3 0.00012
1193.4 0.00021
1193.5 0.0003
1193.6 0.00039
1193.7 0.00048
1193.8 0.00057
1193.9 0.00066
1194 0.00075
1194.1 0.000585
1194.2 0.00042
1194.3 0.000255
1194.4 9e-05
1194.5 -7.5e-05
1194.6 -0.00024
1194.7 -0.000405
1194.8 -0.00057
1194.9 -0.000735
1195 -0.0009
1195.1 -0.00071
1195.2 -0.00052
1195.3 -0.00033
1195.4 -0.00014
1195.5 5e-05
1195.6 0.00024
1195.7 0.00043
1195.8 0.00062
1195.9 0.00081
1196 0.001
1196.1 0.000915
1196.2 0.00083
1196.3 0.000745
1196.4 0.00066
1196.5 0.000575
1196.6 0.00049
1196.7 0.000405
1196.8 0.00032
1196.9 0.000235
1197 0.00015
1197.1 0.00026
1197.2 0.00037
1197.3 0.00048
1197.4 0.00059
1197.5 0.0007
1197.6 0.00081
1197.7 0.00092
1197.8 0.00103
1197.9 0.00114
1198 0.00125
1198.1 0.001225
1198.2 0.0012
1198.3 0.001175
1198.4 0.00115
1198.5 0.001125
1198.6 0.0011
1198.7 0.001075
1198.8 0.00105
1198.9 0.001025
1199 0.001
1199.1 0.000945
1199.2 0.00089
1199.3 0.000835
1199.4 0.00078
1199.5 0.000725
1199.6 0.00067
1199.7 0.000615
1199.8 0.00056
1199.9 0.000505
1200 0.0
